Data from 12-12-AQDScycling_Absorbance__56__00056.txt Node

Date: Tue Dec 12 11:10:44 EST 2023
User: kyuminlee
Spectrometer: FLMS00943
Trigger mode: 0
Integration Time (sec): 1.000000E-1
Scans to average: 1
Electric dark correction enabled: true
Nonlinearity correction enabled: false
Boxcar width: 0
XAxis mode: Wavelengths
Number of Pixels in Spectrum: 2048
>>>>>Begin Spectral Data<<<<<
179.651	-0.23
180.037	-0.23
180.424	-0.23
180.81	-0.32
181.197	-0.04
181.583	-0
181.97	-0.13
182.356	-0
182.743	-1.19
183.129	0.05
183.515	0.33
183.901	-2.87
184.288	0.42
184.674	-0
185.06	-0.06
185.446	-0.29
185.832	-0.59
186.218	0.19
186.604	-0.32
186.99	-0
187.376	0.31
187.762	-0.21
188.148	1.49
188.534	0.12
188.92	0.22
189.305	0.01
189.691	0.27
190.077	0.18
190.463	0.11
190.848	0.12
191.234	0.04
191.619	0.16
192.005	0.18
192.391	0.11
192.776	0.11
193.161	0.09
193.547	0.14
193.932	-0.01
194.318	0.07
194.703	0.24
195.088	0.3
195.473	0.26
195.859	0.17
196.244	0.23
196.629	0.12
197.014	0.18
197.399	0.11
197.784	0.15
198.169	0.07
198.554	0.35
198.939	0.22
199.324	0.18
199.709	0.05
200.094	0.17
200.478	0.25
200.863	0.13
201.248	0.21
201.633	0.15
202.017	0.17
202.402	0.1
202.787	0.12
203.171	0.14
203.556	0.17
203.94	0.32
204.325	0.27
204.709	0.29
205.093	0.31
205.478	0.26
205.862	0.13
206.246	0.15
206.631	0.04
207.015	0.19
207.399	0.2
207.783	0.16
208.167	0.21
208.551	0.19
208.935	0.23
209.319	0.17
209.703	0.18
210.087	0.3
210.471	0.18
210.855	0.18
211.239	0.17
211.623	0.53
212.007	0.41
212.39	0.33
212.774	0.12
213.158	0.09
213.541	0.18
213.925	0.26
214.309	0.23
214.692	0.3
215.076	0.31
215.459	0.14
215.842	0.11
216.226	0.27
216.609	0.29
216.993	0.24
217.376	0.69
217.759	0.38
218.142	0.2
218.525	0.58
218.909	0.26
219.292	0.3
219.675	0.56
220.058	0.56
220.441	0.46
220.824	0.42
221.207	0.49
221.59	0.45
221.973	0.5
222.355	0.52
222.738	0.93
223.121	0.63
223.504	0.55
223.886	0.65
224.269	0.65
224.652	0.66
225.034	0.77
225.417	0.85
225.799	0.96
226.182	0.82
226.564	0.8
226.947	0.81
227.329	0.79
227.711	0.94
228.094	1.08
228.476	0.87
228.858	0.84
229.24	0.89
229.623	0.97
230.005	0.87
230.387	0.88
230.769	0.89
231.151	0.9
231.533	0.87
231.915	1.03
232.297	1.01
232.679	1.06
233.061	0.89
233.442	1.04
233.824	1.09
234.206	1.04
234.588	1
234.969	0.96
235.351	1.04
235.733	1.04
236.114	1.17
236.496	1.05
236.877	0.96
237.259	1.02
237.64	1.25
238.022	1
238.403	1.01
238.784	1.14
239.165	0.95
239.547	1.15
239.928	1
240.309	0.99
240.69	1.16
241.071	1.17
241.452	1.27
241.834	1.07
242.215	1.09
242.595	1.19
242.976	1.17
243.357	1.25
243.738	1.02
244.119	1.25
244.5	1.14
244.881	1.25
245.261	1.22
245.642	1.11
246.023	1.23
246.403	1.26
246.784	1.23
247.164	1.32
247.545	1.5
247.925	1.24
248.306	1.32
248.686	1.5
249.067	1.26
249.447	1.42
249.827	1.66
250.207	1.41
250.588	1.39
250.968	1.5
251.348	1.32
251.728	1.41
252.108	1.38
252.488	1.35
252.868	1.33
253.248	1.41
253.628	1.36
254.008	1.45
254.388	1.33
254.768	1.43
255.147	1.51
255.527	1.46
255.907	1.38
256.287	1.38
256.666	1.31
257.046	1.52
257.425	1.57
257.805	1.4
258.184	1.37
258.564	1.39
258.943	1.34
259.323	1.57
259.702	1.45
260.081	1.46
260.461	1.44
260.84	1.5
261.219	1.54
261.598	1.81
261.977	1.57
262.356	1.51
262.736	1.53
263.115	1.52
263.494	1.49
263.873	1.42
264.251	1.47
264.63	1.47
265.009	1.35
265.388	1.54
265.767	1.34
266.145	1.57
266.524	1.48
266.903	1.44
267.281	1.36
267.66	1.56
268.039	1.55
268.417	1.4
268.796	1.45
269.174	1.58
269.552	1.36
269.931	1.5
270.309	1.42
270.687	1.53
271.066	1.55
271.444	1.35
271.822	1.81
272.2	1.67
272.578	1.44
272.956	1.62
273.334	1.42
273.712	1.62
274.09	1.43
274.468	1.36
274.846	1.3
275.224	1.41
275.602	1.4
275.98	1.54
276.357	1.49
276.735	1.57
277.113	1.35
277.49	1.45
277.868	1.37
278.246	1.4
278.623	1.42
279.001	1.4
279.378	1.44
279.756	1.5
280.133	1.63
280.51	1.35
280.888	1.36
281.265	1.39
281.642	1.59
282.019	1.56
282.396	1.53
282.773	1.46
283.151	1.57
283.528	1.6
283.905	1.41
284.282	1.6
284.659	1.39
285.035	1.3
285.412	1.35
285.789	1.54
286.166	1.4
286.543	1.46
286.919	1.52
287.296	1.37
287.673	1.64
288.049	1.52
288.426	1.61
288.802	1.6
289.179	1.49
289.555	1.61
289.932	1.38
290.308	1.31
290.684	1.49
291.061	1.46
291.437	1.48
291.813	1.38
292.189	1.23
292.565	1.42
292.942	1.33
293.318	1.38
293.694	1.45
294.07	1.32
294.446	1.49
294.822	1.74
295.197	1.51
295.573	1.65
295.949	1.66
296.325	1.53
296.701	1.62
297.076	1.58
297.452	1.81
297.828	1.46
298.203	1.76
298.579	1.42
298.954	1.42
299.33	1.36
299.705	1.68
300.081	1.57
300.456	1.5
300.831	1.45
301.206	1.44
301.582	1.68
301.957	1.56
302.332	1.55
302.707	1.52
303.082	1.44
303.457	1.44
303.832	1.49
304.207	1.44
304.582	1.38
304.957	1.45
305.332	1.43
305.707	1.35
306.082	1.41
306.456	1.65
306.831	1.48
307.206	1.39
307.58	1.4
307.955	1.37
308.33	1.35
308.704	1.39
309.079	1.36
309.453	1.48
309.828	1.44
310.202	1.45
310.576	1.42
310.951	1.44
311.325	1.34
311.699	1.38
312.073	1.3
312.447	1.35
312.821	1.41
313.196	1.54
313.57	1.32
313.944	1.33
314.317	1.37
314.691	1.41
315.065	1.5
315.439	1.41
315.813	1.46
316.187	1.29
316.56	1.57
316.934	1.38
317.308	1.34
317.681	1.44
318.055	1.49
318.428	1.51
318.802	1.47
319.175	1.47
319.549	1.43
319.922	1.32
320.295	1.37
320.669	1.64
321.042	1.46
321.415	1.63
321.788	1.44
322.162	1.43
322.535	1.55
322.908	1.42
323.281	1.39
323.654	1.56
324.027	1.34
324.4	1.57
324.773	1.53
325.145	1.48
325.518	1.46
325.891	1.35
326.264	1.54
326.636	1.36
327.009	1.49
327.382	1.44
327.754	1.69
328.127	1.42
328.499	1.55
328.872	1.41
329.244	1.54
329.616	1.35
329.989	1.42
330.361	1.48
330.733	1.36
331.106	1.38
331.478	1.56
331.85	1.43
332.222	1.38
332.594	1.36
332.966	1.48
333.338	1.62
333.71	1.54
334.082	1.59
334.454	1.53
334.826	1.39
335.197	1.55
335.569	1.39
335.941	1.38
336.312	1.49
336.684	1.36
337.056	1.36
337.427	1.5
337.799	1.47
338.17	1.36
338.542	1.4
338.913	1.58
339.284	1.48
339.656	1.44
340.027	1.51
340.398	1.49
340.769	1.43
341.141	1.65
341.512	1.47
341.883	1.52
342.254	1.54
342.625	1.5
342.996	1.5
343.367	1.48
343.738	1.44
344.108	1.43
344.479	1.63
344.85	1.32
345.221	1.52
345.591	1.53
345.962	1.46
346.333	1.4
346.703	1.28
347.074	1.35
347.444	1.28
347.815	1.41
348.185	1.4
348.556	1.52
348.926	1.38
349.296	1.31
349.666	1.38
350.037	1.24
350.407	1.27
350.777	1.35
351.147	1.29
351.517	1.39
351.887	1.32
352.257	1.42
352.627	1.35
352.997	1.27
353.367	1.39
353.737	1.43
354.106	1.37
354.476	1.3
354.846	1.4
355.216	1.41
355.585	1.33
355.955	1.35
356.324	1.41
356.694	1.42
357.063	1.3
357.433	1.32
357.802	1.4
358.171	1.35
358.541	1.4
358.91	1.36
359.279	1.33
359.648	1.37
360.017	1.38
360.387	1.38
360.756	1.27
361.125	1.43
361.494	1.4
361.863	1.33
362.231	1.37
362.6	1.33
362.969	1.35
363.338	1.23
363.707	1.46
364.075	1.39
364.444	1.24
364.813	1.28
365.181	1.28
365.55	1.26
365.918	1.41
366.287	1.27
366.655	1.43
367.024	1.35
367.392	1.29
367.76	1.39
368.128	1.32
368.497	1.28
368.865	1.31
369.233	1.37
369.601	1.37
369.969	1.42
370.337	1.33
370.705	1.36
371.073	1.44
371.441	1.38
371.809	1.32
372.177	1.37
372.544	1.31
372.912	1.4
373.28	1.34
373.647	1.4
374.015	1.43
374.383	1.47
374.75	1.51
375.118	1.44
375.485	1.42
375.853	1.43
376.22	1.33
376.587	1.35
376.955	1.37
377.322	1.39
377.689	1.4
378.056	1.41
378.423	1.4
378.79	1.49
379.157	1.39
379.524	1.4
379.891	1.39
380.258	1.43
380.625	1.39
380.992	1.42
381.359	1.43
381.726	1.58
382.092	1.37
382.459	1.44
382.826	1.38
383.192	1.47
383.559	1.48
383.925	1.69
384.292	1.36
384.658	1.5
385.025	1.43
385.391	1.7
385.757	1.45
386.123	1.5
386.49	1.53
386.856	1.46
387.222	1.52
387.588	1.56
387.954	1.64
388.32	1.69
388.686	1.56
389.052	1.52
389.418	1.48
389.784	1.55
390.15	1.66
390.515	1.39
390.881	1.58
391.247	1.4
391.613	1.7
391.978	1.51
392.344	1.56
392.709	1.51
393.075	1.58
393.44	1.64
393.806	1.68
394.171	1.48
394.536	1.48
394.902	1.53
395.267	1.51
395.632	1.41
395.997	1.58
396.362	1.55
396.727	1.51
397.092	1.47
397.457	1.42
397.822	1.49
398.187	1.57
398.552	1.47
398.917	1.55
399.282	1.34
399.646	1.34
400.011	1.58
400.376	1.42
400.74	1.4
401.105	1.45
401.47	1.49
401.834	1.56
402.199	1.59
402.563	1.46
402.927	1.42
403.292	1.5
403.656	1.43
404.02	1.39
404.384	1.46
404.749	1.41
405.113	1.48
405.477	1.44
405.841	1.46
406.205	1.38
406.569	1.37
406.933	1.29
407.296	1.35
407.66	1.3
408.024	1.36
408.388	1.45
408.752	1.39
409.115	1.4
409.479	1.42
409.842	1.33
410.206	1.31
410.569	1.29
410.933	1.35
411.296	1.24
411.66	1.32
412.023	1.3
412.386	1.26
412.749	1.19
413.113	1.32
413.476	1.26
413.839	1.25
414.202	1.24
414.565	1.25
414.928	1.32
415.291	1.18
415.654	1.21
416.017	1.21
416.38	1.18
416.742	1.21
417.105	1.15
417.468	1.15
417.83	1.27
418.193	1.24
418.556	1.16
418.918	1.19
419.281	1.22
419.643	1.18
420.005	1.21
420.368	1.19
420.73	1.25
421.092	1.25
421.455	1.21
421.817	1.13
422.179	1.17
422.541	1.14
422.903	1.19
423.265	1.23
423.627	1.13
423.989	1.13
424.351	1.15
424.713	1.17
425.075	1.12
425.436	1.13
425.798	1.13
426.16	1.19
426.521	1.15
426.883	1.13
427.245	1.16
427.606	1.15
427.967	1.11
428.329	1.11
428.69	1.12
429.052	1.12
429.413	1.12
429.774	1.11
430.135	1.13
430.497	1.08
430.858	1.07
431.219	1.13
431.58	1.07
431.941	1.05
432.302	1.07
432.663	1.12
433.024	1.11
433.384	1.06
433.745	1.06
434.106	1.09
434.467	1.07
434.827	1.06
435.188	1.07
435.548	1.12
435.909	1.05
436.269	1.13
436.63	1.02
436.99	1.08
437.351	1.01
437.711	1.03
438.071	1.02
438.431	1
438.792	1
439.152	1.01
439.512	0.96
439.872	1
440.232	1.01
440.592	1.01
440.952	1
441.312	0.98
441.671	0.94
442.031	0.97
442.391	0.97
442.751	0.98
443.11	0.97
443.47	0.94
443.83	0.92
444.189	0.92
444.549	0.95
444.908	0.93
445.267	0.91
445.627	0.91
445.986	0.88
446.345	0.88
446.705	0.91
447.064	0.92
447.423	0.88
447.782	0.89
448.141	0.88
448.5	0.84
448.859	0.87
449.218	0.85
449.577	0.88
449.936	0.86
450.295	0.86
450.653	0.84
451.012	0.84
451.371	0.83
451.729	0.81
452.088	0.84
452.447	0.83
452.805	0.81
453.163	0.82
453.522	0.8
453.88	0.8
454.239	0.8
454.597	0.78
454.955	0.78
455.313	0.75
455.671	0.75
456.029	0.75
456.388	0.74
456.746	0.75
457.104	0.73
457.461	0.72
457.819	0.72
458.177	0.7
458.535	0.71
458.893	0.69
459.25	0.68
459.608	0.68
459.966	0.66
460.323	0.65
460.681	0.65
461.038	0.64
461.396	0.64
461.753	0.63
462.111	0.63
462.468	0.61
462.825	0.61
463.182	0.61
463.54	0.6
463.897	0.59
464.254	0.59
464.611	0.57
464.968	0.57
465.325	0.57
465.682	0.56
466.039	0.55
466.395	0.54
466.752	0.55
467.109	0.52
467.466	0.52
467.822	0.52
468.179	0.51
468.535	0.51
468.892	0.5
469.248	0.49
469.605	0.49
469.961	0.48
470.318	0.49
470.674	0.48
471.03	0.47
471.386	0.46
471.743	0.45
472.099	0.44
472.455	0.44
472.811	0.43
473.167	0.42
473.523	0.41
473.879	0.41
474.235	0.41
474.59	0.41
474.946	0.4
475.302	0.4
475.657	0.39
476.013	0.4
476.369	0.37
476.724	0.38
477.08	0.38
477.435	0.37
477.791	0.37
478.146	0.36
478.501	0.36
478.857	0.35
479.212	0.35
479.567	0.34
479.922	0.34
480.277	0.33
480.632	0.33
480.987	0.33
481.342	0.32
481.697	0.31
482.052	0.31
482.407	0.31
482.762	0.31
483.116	0.3
483.471	0.29
483.826	0.28
484.18	0.28
484.535	0.28
484.89	0.27
485.244	0.27
485.598	0.27
485.953	0.27
486.307	0.27
486.661	0.27
487.016	0.25
487.37	0.25
487.724	0.26
488.078	0.25
488.432	0.25
488.786	0.24
489.14	0.25
489.494	0.24
489.848	0.24
490.202	0.23
490.556	0.24
490.91	0.23
491.263	0.23
491.617	0.23
491.971	0.23
492.324	0.22
492.678	0.22
493.031	0.22
493.385	0.22
493.738	0.21
494.091	0.22
494.445	0.21
494.798	0.21
495.151	0.21
495.504	0.21
495.857	0.21
496.21	0.21
496.564	0.21
496.916	0.21
497.269	0.2
497.622	0.21
497.975	0.2
498.328	0.2
498.681	0.2
499.033	0.19
499.386	0.2
499.739	0.2
500.091	0.19
500.444	0.19
500.796	0.2
501.149	0.19
501.501	0.19
501.854	0.19
502.206	0.19
502.558	0.18
502.91	0.19
503.263	0.18
503.615	0.18
503.967	0.18
504.319	0.19
504.671	0.17
505.023	0.17
505.375	0.18
505.726	0.18
506.078	0.17
506.43	0.17
506.782	0.18
507.133	0.18
507.485	0.18
507.837	0.19
508.188	0.18
508.54	0.18
508.891	0.18
509.243	0.17
509.594	0.17
509.945	0.18
510.296	0.18
510.648	0.17
510.999	0.17
511.35	0.17
511.701	0.17
512.052	0.17
512.403	0.17
512.754	0.17
513.105	0.16
513.456	0.16
513.807	0.16
514.157	0.15
514.508	0.16
514.859	0.15
515.209	0.15
515.56	0.16
515.91	0.16
516.261	0.16
516.611	0.15
516.962	0.16
517.312	0.17
517.662	0.17
518.013	0.16
518.363	0.16
518.713	0.17
519.063	0.16
519.413	0.16
519.763	0.16
520.113	0.16
520.463	0.17
520.813	0.16
521.163	0.17
521.512	0.16
521.862	0.16
522.212	0.16
522.562	0.16
522.911	0.17
523.261	0.16
523.61	0.16
523.96	0.16
524.309	0.17
524.658	0.17
525.008	0.16
525.357	0.16
525.706	0.16
526.056	0.16
526.405	0.16
526.754	0.17
527.103	0.16
527.452	0.16
527.801	0.17
528.15	0.16
528.499	0.16
528.847	0.16
529.196	0.17
529.545	0.17
529.893	0.17
530.242	0.17
530.591	0.16
530.939	0.17
531.288	0.16
531.636	0.17
531.985	0.17
532.333	0.17
532.681	0.16
533.029	0.16
533.378	0.17
533.726	0.17
534.074	0.17
534.422	0.16
534.77	0.18
535.118	0.17
535.466	0.16
535.814	0.16
536.162	0.17
536.509	0.17
536.857	0.17
537.205	0.17
537.552	0.17
537.9	0.17
538.248	0.16
538.595	0.17
538.943	0.16
539.29	0.16
539.637	0.15
539.985	0.16
540.332	0.16
540.679	0.16
541.026	0.16
541.373	0.17
541.721	0.16
542.068	0.17
542.415	0.17
542.762	0.16
543.108	0.15
543.455	0.16
543.802	0.16
544.149	0.16
544.496	0.17
544.842	0.16
545.189	0.15
545.535	0.16
545.882	0.16
546.228	0.16
546.575	0.16
546.921	0.17
547.267	0.16
547.614	0.16
547.96	0.16
548.306	0.16
548.652	0.16
548.998	0.17
549.344	0.16
549.69	0.17
550.036	0.16
550.382	0.17
550.728	0.16
551.074	0.17
551.42	0.17
551.765	0.17
552.111	0.17
552.457	0.17
552.802	0.16
553.148	0.16
553.493	0.16
553.839	0.17
554.184	0.17
554.529	0.17
554.875	0.16
555.22	0.17
555.565	0.18
555.91	0.17
556.255	0.18
556.6	0.18
556.945	0.17
557.29	0.16
557.635	0.17
557.98	0.17
558.325	0.17
558.67	0.16
559.014	0.16
559.359	0.17
559.704	0.16
560.048	0.16
560.393	0.17
560.737	0.15
561.082	0.16
561.426	0.16
561.77	0.16
562.115	0.16
562.459	0.16
562.803	0.17
563.147	0.15
563.491	0.16
563.835	0.17
564.179	0.17
564.523	0.16
564.867	0.16
565.211	0.16
565.555	0.16
565.899	0.17
566.242	0.17
566.586	0.16
566.93	0.17
567.273	0.17
567.617	0.16
567.96	0.17
568.304	0.17
568.647	0.16
568.99	0.17
569.334	0.18
569.677	0.17
570.02	0.18
570.363	0.17
570.706	0.17
571.049	0.17
571.392	0.18
571.735	0.17
572.078	0.18
572.421	0.18
572.764	0.18
573.106	0.17
573.449	0.17
573.792	0.17
574.134	0.17
574.477	0.17
574.819	0.18
575.162	0.16
575.504	0.17
575.847	0.17
576.189	0.17
576.531	0.17
576.873	0.17
577.215	0.16
577.558	0.17
577.9	0.17
578.242	0.17
578.584	0.17
578.926	0.17
579.267	0.16
579.609	0.16
579.951	0.16
580.293	0.17
580.634	0.17
580.976	0.16
581.318	0.17
581.659	0.16
582.001	0.16
582.342	0.17
582.683	0.17
583.025	0.17
583.366	0.17
583.707	0.16
584.049	0.17
584.39	0.16
584.731	0.16
585.072	0.16
585.413	0.16
585.754	0.16
586.095	0.17
586.435	0.17
586.776	0.16
587.117	0.16
587.458	0.16
587.798	0.16
588.139	0.17
588.48	0.17
588.82	0.16
589.161	0.16
589.501	0.16
589.841	0.17
590.182	0.16
590.522	0.15
590.862	0.15
591.202	0.15
591.542	0.15
591.882	0.15
592.222	0.16
592.562	0.16
592.902	0.16
593.242	0.15
593.582	0.17
593.922	0.16
594.261	0.16
594.601	0.16
594.941	0.16
595.28	0.16
595.62	0.16
595.959	0.15
596.299	0.16
596.638	0.16
596.977	0.16
597.317	0.16
597.656	0.16
597.995	0.15
598.334	0.17
598.673	0.16
599.012	0.15
599.351	0.17
599.69	0.15
600.029	0.16
600.368	0.16
600.707	0.16
601.046	0.15
601.384	0.17
601.723	0.16
602.061	0.15
602.4	0.16
602.738	0.16
603.077	0.16
603.415	0.16
603.754	0.16
604.092	0.16
604.43	0.16
604.768	0.16
605.107	0.16
605.445	0.16
605.783	0.16
606.121	0.15
606.459	0.16
606.796	0.16
607.134	0.16
607.472	0.15
607.81	0.16
608.148	0.15
608.485	0.17
608.823	0.17
609.16	0.16
609.498	0.17
609.835	0.16
610.173	0.16
610.51	0.16
610.847	0.17
611.185	0.17
611.522	0.16
611.859	0.17
612.196	0.16
612.533	0.17
612.87	0.17
613.207	0.18
613.544	0.17
613.881	0.17
614.217	0.17
614.554	0.17
614.891	0.18
615.228	0.17
615.564	0.17
615.901	0.17
616.237	0.17
616.574	0.16
616.91	0.17
617.246	0.16
617.583	0.16
617.919	0.17
618.255	0.17
618.591	0.16
618.927	0.16
619.263	0.16
619.599	0.16
619.935	0.17
620.271	0.17
620.607	0.16
620.943	0.16
621.279	0.17
621.614	0.16
621.95	0.16
622.286	0.16
622.621	0.16
622.957	0.16
623.292	0.16
623.627	0.15
623.963	0.15
624.298	0.15
624.633	0.15
624.968	0.16
625.304	0.15
625.639	0.15
625.974	0.15
626.309	0.15
626.644	0.15
626.979	0.16
627.313	0.16
627.648	0.15
627.983	0.16
628.318	0.15
628.652	0.15
628.987	0.15
629.321	0.16
629.656	0.14
629.99	0.15
630.325	0.16
630.659	0.16
630.993	0.15
631.327	0.15
631.662	0.15
631.996	0.14
632.33	0.15
632.664	0.15
632.998	0.14
633.332	0.14
633.666	0.15
633.999	0.14
634.333	0.14
634.667	0.14
635.001	0.14
635.334	0.14
635.668	0.14
636.001	0.14
636.335	0.14
636.668	0.15
637.001	0.14
637.335	0.13
637.668	0.15
638.001	0.14
638.334	0.14
638.668	0.13
639.001	0.14
639.334	0.13
639.667	0.14
639.999	0.14
640.332	0.14
640.665	0.14
640.998	0.15
641.331	0.14
641.663	0.14
641.996	0.14
642.328	0.15
642.661	0.14
642.993	0.13
643.326	0.14
643.658	0.14
643.99	0.13
644.323	0.14
644.655	0.14
644.987	0.13
645.319	0.14
645.651	0.14
645.983	0.14
646.315	0.14
646.647	0.14
646.979	0.15
647.31	0.15
647.642	0.14
647.974	0.14
648.305	0.15
648.637	0.15
648.968	0.15
649.3	0.15
649.631	0.15
649.963	0.14
650.294	0.14
650.625	0.14
650.957	0.15
651.288	0.15
651.619	0.14
651.95	0.15
652.281	0.14
652.612	0.13
652.943	0.14
653.274	0.14
653.604	0.13
653.935	0.14
654.266	0.14
654.596	0.13
654.927	0.14
655.258	0.14
655.588	0.15
655.918	0.14
656.249	0.12
656.579	0.13
656.909	0.14
657.24	0.13
657.57	0.14
657.9	0.14
658.23	0.14
658.56	0.14
658.89	0.14
659.22	0.14
659.55	0.14
659.88	0.14
660.209	0.14
660.539	0.15
660.869	0.14
661.198	0.14
661.528	0.13
661.857	0.13
662.187	0.14
662.516	0.13
662.846	0.13
663.175	0.13
663.504	0.13
663.833	0.13
664.163	0.14
664.492	0.14
664.821	0.13
665.15	0.13
665.479	0.14
665.807	0.13
666.136	0.13
666.465	0.13
666.794	0.13
667.122	0.13
667.451	0.13
667.78	0.13
668.108	0.13
668.437	0.12
668.765	0.13
669.093	0.13
669.422	0.13
669.75	0.13
670.078	0.12
670.406	0.13
670.734	0.13
671.062	0.12
671.39	0.12
671.718	0.13
672.046	0.13
672.374	0.12
672.702	0.12
673.029	0.12
673.357	0.12
673.685	0.13
674.012	0.12
674.34	0.12
674.667	0.13
674.995	0.12
675.322	0.13
675.649	0.12
675.977	0.12
676.304	0.12
676.631	0.12
676.958	0.12
677.285	0.11
677.612	0.11
677.939	0.11
678.266	0.11
678.593	0.11
678.92	0.11
679.246	0.11
679.573	0.11
679.9	0.1
680.226	0.11
680.553	0.1
680.879	0.11
681.206	0.11
681.532	0.1
681.858	0.11
682.184	0.11
682.511	0.11
682.837	0.1
683.163	0.11
683.489	0.1
683.815	0.1
684.141	0.1
684.467	0.1
684.793	0.11
685.118	0.11
685.444	0.11
685.77	0.1
686.095	0.11
686.421	0.11
686.746	0.11
687.072	0.11
687.397	0.1
687.723	0.11
688.048	0.11
688.373	0.1
688.698	0.1
689.023	0.11
689.349	0.1
689.674	0.11
689.999	0.1
690.323	0.09
690.648	0.09
690.973	0.09
691.298	0.09
691.623	0.1
691.947	0.1
692.272	0.09
692.596	0.09
692.921	0.1
693.245	0.09
693.57	0.09
693.894	0.1
694.218	0.09
694.543	0.09
694.867	0.09
695.191	0.08
695.515	0.1
695.839	0.09
696.163	0.09
696.487	0.09
696.811	0.09
697.135	0.1
697.458	0.09
697.782	0.09
698.106	0.09
698.429	0.09
698.753	0.09
699.076	0.09
699.4	0.09
699.723	0.09
700.046	0.09
700.37	0.1
700.693	0.09
701.016	0.09
701.339	0.1
701.662	0.1
701.985	0.1
702.308	0.09
702.631	0.1
702.954	0.1
703.277	0.09
703.599	0.09
703.922	0.09
704.245	0.09
704.567	0.08
704.89	0.09
705.212	0.09
705.535	0.08
705.857	0.08
706.179	0.07
706.502	0.08
706.824	0.07
707.146	0.07
707.468	0.08
707.79	0.08
708.112	0.08
708.434	0.08
708.756	0.08
709.078	0.08
709.399	0.07
709.721	0.08
710.043	0.08
710.364	0.08
710.686	0.08
711.007	0.08
711.329	0.09
711.65	0.07
711.972	0.07
712.293	0.08
712.614	0.07
712.935	0.08
713.256	0.08
713.577	0.09
713.898	0.07
714.219	0.08
714.54	0.07
714.861	0.08
715.182	0.08
715.503	0.08
715.823	0.08
716.144	0.08
716.464	0.07
716.785	0.08
717.105	0.07
717.426	0.08
717.746	0.08
718.066	0.07
718.387	0.07
718.707	0.07
719.027	0.07
719.347	0.06
719.667	0.08
719.987	0.07
720.307	0.06
720.627	0.07
720.947	0.07
721.266	0.07
721.586	0.06
721.906	0.07
722.225	0.06
722.545	0.06
722.864	0.07
723.184	0.07
