Data from 12-12-AQDScycling_Absorbance__612__00612.txt Node

Date: Tue Dec 12 13:29:44 EST 2023
User: kyuminlee
Spectrometer: FLMS00943
Trigger mode: 0
Integration Time (sec): 1.000000E-1
Scans to average: 1
Electric dark correction enabled: true
Nonlinearity correction enabled: false
Boxcar width: 0
XAxis mode: Wavelengths
Number of Pixels in Spectrum: 2048
>>>>>Begin Spectral Data<<<<<
179.651	-0
180.037	-0
180.424	-0
180.81	-0
181.197	0.02
181.583	-0
181.97	-0.32
182.356	-0.31
182.743	-0.79
183.129	0.29
183.515	-0
183.901	-1.92
184.288	0.15
184.674	0.37
185.06	-0.19
185.446	-0
185.832	-1.44
186.218	-0.02
186.604	0.14
186.99	-0.69
187.376	0.37
187.762	-0.3
188.148	0.59
188.534	0.27
188.92	-0.03
189.305	0.26
189.691	0.08
190.077	0.14
190.463	0.11
190.848	-0.03
191.234	0.23
191.619	0.07
192.005	0.09
192.391	0.15
192.776	0.18
193.161	0.03
193.547	0.21
193.932	0.13
194.318	-0.03
194.703	0.14
195.088	0.15
195.473	0.3
195.859	0.16
196.244	0.12
196.629	0.02
197.014	0.25
197.399	0.26
197.784	0.17
198.169	0.05
198.554	0.12
198.939	0.22
199.324	0.05
199.709	0.06
200.094	0.1
200.478	0.08
200.863	0.25
201.248	0.1
201.633	0.15
202.017	0.1
202.402	0.26
202.787	-0.05
203.171	0.17
203.556	0.31
203.94	0.07
204.325	0.09
204.709	0.2
205.093	0.13
205.478	0.16
205.862	0.19
206.246	0.14
206.631	0.17
207.015	0.27
207.399	0.32
207.783	0.19
208.167	0.09
208.551	0.18
208.935	0.08
209.319	0.17
209.703	0.17
210.087	0.2
210.471	-0.04
210.855	0.04
211.239	0.08
211.623	0.2
212.007	0.17
212.39	0.24
212.774	0.29
213.158	0.13
213.541	0.16
213.925	0.24
214.309	0.28
214.692	0.42
215.076	0.11
215.459	0.08
215.842	0.02
216.226	0.24
216.609	0.29
216.993	0.2
217.376	0.44
217.759	0.26
218.142	0.33
218.525	0.37
218.909	0.29
219.292	0.34
219.675	0.35
220.058	0.41
220.441	0.74
220.824	0.39
221.207	0.42
221.59	0.38
221.973	0.46
222.355	0.69
222.738	0.63
223.121	0.61
223.504	0.57
223.886	0.65
224.269	0.59
224.652	0.65
225.034	0.71
225.417	0.72
225.799	0.76
226.182	0.84
226.564	0.87
226.947	0.67
227.329	0.82
227.711	0.87
228.094	1.06
228.476	0.99
228.858	0.75
229.24	0.82
229.623	0.95
230.005	0.74
230.387	0.84
230.769	0.82
231.151	0.81
231.533	0.91
231.915	0.89
232.297	0.96
232.679	0.95
233.061	0.96
233.442	0.93
233.824	0.97
234.206	1
234.588	1.11
234.969	1.02
235.351	1
235.733	1.04
236.114	1.05
236.496	1.05
236.877	1.03
237.259	1.11
237.64	1.03
238.022	1.04
238.403	1.01
238.784	0.97
239.165	0.9
239.547	1.03
239.928	1.06
240.309	1.01
240.69	1
241.071	1.17
241.452	1.15
241.834	1.02
242.215	1.13
242.595	1.12
242.976	1.17
243.357	1.1
243.738	0.93
244.119	1.2
244.5	1.08
244.881	1.28
245.261	1.2
245.642	1.04
246.023	1.21
246.403	1.16
246.784	1.27
247.164	1.19
247.545	1.23
247.925	1.37
248.306	1.22
248.686	1.37
249.067	1.12
249.447	1.35
249.827	1.41
250.207	1.4
250.588	1.4
250.968	1.44
251.348	1.29
251.728	1.21
252.108	1.33
252.488	1.29
252.868	1.3
253.248	1.25
253.628	1.36
254.008	1.5
254.388	1.35
254.768	1.31
255.147	1.35
255.527	1.5
255.907	1.24
256.287	1.4
256.666	1.41
257.046	1.46
257.425	1.46
257.805	1.28
258.184	1.25
258.564	1.36
258.943	1.36
259.323	1.37
259.702	1.39
260.081	1.46
260.461	1.4
260.84	1.55
261.219	1.78
261.598	1.53
261.977	1.42
262.356	1.48
262.736	1.57
263.115	1.57
263.494	1.32
263.873	1.44
264.251	1.37
264.63	1.48
265.009	1.36
265.388	1.37
265.767	1.34
266.145	1.35
266.524	1.32
266.903	1.37
267.281	1.38
267.66	1.52
268.039	1.43
268.417	1.39
268.796	1.35
269.174	1.44
269.552	1.26
269.931	1.38
270.309	1.31
270.687	1.68
271.066	1.41
271.444	1.27
271.822	1.42
272.2	1.47
272.578	1.35
272.956	1.33
273.334	1.36
273.712	1.28
274.09	1.35
274.468	1.26
274.846	1.32
275.224	1.19
275.602	1.34
275.98	1.51
276.357	1.36
276.735	1.4
277.113	1.32
277.49	1.28
277.868	1.32
278.246	1.32
278.623	1.24
279.001	1.24
279.378	1.35
279.756	1.51
280.133	1.46
280.51	1.39
280.888	1.36
281.265	1.28
281.642	1.47
282.019	1.48
282.396	1.49
282.773	1.53
283.151	1.51
283.528	1.51
283.905	1.39
284.282	1.48
284.659	1.54
285.035	1.29
285.412	1.41
285.789	1.42
286.166	1.42
286.543	1.36
286.919	1.5
287.296	1.44
287.673	1.73
288.049	1.58
288.426	1.71
288.802	1.47
289.179	1.49
289.555	1.85
289.932	1.44
290.308	1.29
290.684	1.43
291.061	1.28
291.437	1.56
291.813	1.34
292.189	1.25
292.565	1.36
292.942	1.29
293.318	1.33
293.694	1.4
294.07	1.27
294.446	1.4
294.822	1.41
295.197	1.3
295.573	1.36
295.949	1.35
296.325	1.35
296.701	1.4
297.076	1.45
297.452	1.39
297.828	1.27
298.203	1.48
298.579	1.32
298.954	1.31
299.33	1.28
299.705	1.3
300.081	1.4
300.456	1.27
300.831	1.22
301.206	1.26
301.582	1.26
301.957	1.23
302.332	1.29
302.707	1.14
303.082	1.12
303.457	1.18
303.832	1.12
304.207	1.08
304.582	1.09
304.957	1.06
305.332	1.1
305.707	1.04
306.082	1.02
306.456	1.03
306.831	0.98
307.206	0.99
307.58	1
307.955	0.93
308.33	0.96
308.704	0.91
309.079	0.87
309.453	0.9
309.828	0.86
310.202	0.88
310.576	0.83
310.951	0.87
311.325	0.8
311.699	0.8
312.073	0.77
312.447	0.78
312.821	0.75
313.196	0.74
313.57	0.74
313.944	0.74
314.317	0.69
314.691	0.73
315.065	0.71
315.439	0.7
315.813	0.69
316.187	0.7
316.56	0.7
316.934	0.67
317.308	0.67
317.681	0.66
318.055	0.66
318.428	0.64
318.802	0.67
319.175	0.63
319.549	0.64
319.922	0.65
320.295	0.62
320.669	0.66
321.042	0.64
321.415	0.64
321.788	0.61
322.162	0.59
322.535	0.64
322.908	0.61
323.281	0.59
323.654	0.61
324.027	0.61
324.4	0.63
324.773	0.61
325.145	0.62
325.518	0.59
325.891	0.63
326.264	0.61
326.636	0.62
327.009	0.59
327.382	0.63
327.754	0.63
328.127	0.62
328.499	0.64
328.872	0.62
329.244	0.62
329.616	0.63
329.989	0.63
330.361	0.65
330.733	0.64
331.106	0.63
331.478	0.7
331.85	0.67
332.222	0.68
332.594	0.69
332.966	0.69
333.338	0.7
333.71	0.7
334.082	0.73
334.454	0.73
334.826	0.73
335.197	0.71
335.569	0.75
335.941	0.74
336.312	0.74
336.684	0.77
337.056	0.79
337.427	0.82
337.799	0.8
338.17	0.84
338.542	0.8
338.913	0.83
339.284	0.86
339.656	0.83
340.027	0.85
340.398	0.87
340.769	0.89
341.141	0.91
341.512	0.91
341.883	0.92
342.254	0.9
342.625	0.94
342.996	0.92
343.367	0.96
343.738	0.96
344.108	0.97
344.479	0.99
344.85	0.96
345.221	1
345.591	0.92
345.962	0.97
346.333	1.03
346.703	1.05
347.074	1.08
347.444	0.99
347.815	1.08
348.185	1.09
348.556	1.19
348.926	1.07
349.296	1.14
349.666	1.1
350.037	1.1
350.407	1.1
350.777	1.18
351.147	1.2
351.517	1.19
351.887	1.25
352.257	1.21
352.627	1.15
352.997	1.25
353.367	1.35
353.737	1.3
354.106	1.28
354.476	1.31
354.846	1.39
355.216	1.37
355.585	1.36
355.955	1.4
356.324	1.47
356.694	1.44
357.063	1.37
357.433	1.39
357.802	1.44
358.171	1.49
358.541	1.42
358.91	1.48
359.279	1.6
359.648	1.44
360.017	1.56
360.387	1.46
360.756	1.44
361.125	1.54
361.494	1.58
361.863	1.39
362.231	1.46
362.6	1.57
362.969	1.51
363.338	1.41
363.707	1.64
364.075	1.63
364.444	1.42
364.813	1.47
365.181	1.53
365.55	1.59
365.918	1.85
366.287	1.66
366.655	1.59
367.024	1.55
367.392	1.64
367.76	1.47
368.128	1.59
368.497	1.63
368.865	1.39
369.233	1.56
369.601	1.46
369.969	1.47
370.337	1.54
370.705	1.46
371.073	1.58
371.441	1.55
371.809	1.45
372.177	1.47
372.544	1.52
372.912	1.49
373.28	1.51
373.647	1.6
374.015	1.84
374.383	1.79
374.75	1.6
375.118	1.52
375.485	1.54
375.853	1.44
376.22	1.49
376.587	1.67
376.955	1.65
377.322	1.75
377.689	1.62
378.056	1.46
378.423	1.42
378.79	1.59
379.157	1.59
379.524	1.53
379.891	1.55
380.258	1.66
380.625	1.51
380.992	1.45
381.359	1.65
381.726	1.71
382.092	1.54
382.459	1.51
382.826	1.51
383.192	1.63
383.559	1.55
383.925	1.51
384.292	1.55
384.658	1.6
385.025	1.55
385.391	1.62
385.757	1.67
386.123	1.47
386.49	1.51
386.856	1.6
387.222	1.52
387.588	1.45
387.954	1.81
388.32	1.64
388.686	1.7
389.052	1.46
389.418	1.66
389.784	1.42
390.15	1.81
390.515	1.37
390.881	1.65
391.247	1.47
391.613	1.68
391.978	1.44
392.344	1.64
392.709	1.66
393.075	1.6
393.44	1.64
393.806	1.65
394.171	1.39
394.536	1.47
394.902	1.6
395.267	1.57
395.632	1.47
395.997	1.45
396.362	1.52
396.727	1.61
397.092	1.52
397.457	1.51
397.822	1.47
398.187	1.54
398.552	1.55
398.917	1.84
399.282	1.49
399.646	1.64
400.011	1.77
400.376	1.4
400.74	1.49
401.105	1.64
401.47	1.62
401.834	1.6
402.199	1.53
402.563	1.47
402.927	1.42
403.292	1.51
403.656	1.54
404.02	1.6
404.384	1.64
404.749	1.52
405.113	1.69
405.477	1.68
405.841	1.51
406.205	1.52
406.569	1.63
406.933	1.46
407.296	1.52
407.66	1.54
408.024	1.68
408.388	1.64
408.752	1.6
409.115	1.53
409.479	1.51
409.842	1.49
410.206	1.43
410.569	1.47
410.933	1.68
411.296	1.41
411.66	1.56
412.023	1.42
412.386	1.48
412.749	1.53
413.113	1.57
413.476	1.49
413.839	1.41
414.202	1.5
414.565	1.51
414.928	1.57
415.291	1.43
415.654	1.49
416.017	1.6
416.38	1.5
416.742	1.46
417.105	1.44
417.468	1.47
417.83	1.52
418.193	1.64
418.556	1.48
418.918	1.37
419.281	1.51
419.643	1.61
420.005	1.5
420.368	1.51
420.73	1.45
421.092	1.47
421.455	1.58
421.817	1.44
422.179	1.42
422.541	1.56
422.903	1.52
423.265	1.52
423.627	1.4
423.989	1.49
424.351	1.5
424.713	1.41
425.075	1.45
425.436	1.62
425.798	1.51
426.16	1.61
426.521	1.46
426.883	1.56
427.245	1.62
427.606	1.58
427.967	1.45
428.329	1.51
428.69	1.67
429.052	1.43
429.413	1.65
429.774	1.49
430.135	1.54
430.497	1.73
430.858	1.51
431.219	1.55
431.58	1.45
431.941	1.51
432.302	1.41
432.663	1.54
433.024	1.64
433.384	1.58
433.745	1.47
434.106	1.59
434.467	1.54
434.827	1.51
435.188	1.64
435.548	1.6
435.909	1.61
436.269	1.69
436.63	1.46
436.99	1.44
437.351	1.44
437.711	1.53
438.071	1.49
438.431	1.47
438.792	1.51
439.152	1.45
439.512	1.41
439.872	1.49
440.232	1.48
440.592	1.56
440.952	1.49
441.312	1.47
441.671	1.44
442.031	1.41
442.391	1.5
442.751	1.61
443.11	1.51
443.47	1.43
443.83	1.4
444.189	1.44
444.549	1.37
444.908	1.48
445.267	1.41
445.627	1.48
445.986	1.47
446.345	1.37
446.705	1.44
447.064	1.4
447.423	1.38
447.782	1.41
448.141	1.39
448.5	1.33
448.859	1.3
449.218	1.34
449.577	1.35
449.936	1.36
450.295	1.39
450.653	1.31
451.012	1.34
451.371	1.31
451.729	1.32
452.088	1.34
452.447	1.37
452.805	1.29
453.163	1.3
453.522	1.28
453.88	1.27
454.239	1.3
454.597	1.23
454.955	1.19
455.313	1.25
455.671	1.25
456.029	1.22
456.388	1.19
456.746	1.16
457.104	1.18
457.461	1.14
457.819	1.14
458.177	1.11
458.535	1.09
458.893	1.12
459.25	1.07
459.608	1.09
459.966	1.06
460.323	1.06
460.681	1.03
461.038	1.01
461.396	0.99
461.753	1.01
462.111	1.02
462.468	0.96
462.825	0.93
463.182	0.93
463.54	0.9
463.897	0.92
464.254	0.91
464.611	0.9
464.968	0.87
465.325	0.88
465.682	0.84
466.039	0.84
466.395	0.82
466.752	0.83
467.109	0.79
467.466	0.78
467.822	0.77
468.179	0.76
468.535	0.75
468.892	0.74
469.248	0.73
469.605	0.71
469.961	0.72
470.318	0.71
470.674	0.68
471.03	0.67
471.386	0.66
471.743	0.64
472.099	0.63
472.455	0.63
472.811	0.62
473.167	0.6
473.523	0.59
473.879	0.59
474.235	0.58
474.59	0.56
474.946	0.55
475.302	0.54
475.657	0.52
476.013	0.52
476.369	0.5
476.724	0.5
477.08	0.49
477.435	0.48
477.791	0.47
478.146	0.47
478.501	0.46
478.857	0.45
479.212	0.44
479.567	0.43
479.922	0.42
480.277	0.42
480.632	0.4
480.987	0.4
481.342	0.38
481.697	0.37
482.052	0.37
482.407	0.36
482.762	0.35
483.116	0.34
483.471	0.34
483.826	0.32
484.18	0.32
484.535	0.32
484.89	0.31
485.244	0.31
485.598	0.3
485.953	0.3
486.307	0.28
486.661	0.29
487.016	0.27
487.37	0.27
487.724	0.26
488.078	0.26
488.432	0.25
488.786	0.25
489.14	0.24
489.494	0.23
489.848	0.23
490.202	0.23
490.556	0.22
490.91	0.21
491.263	0.22
491.617	0.2
491.971	0.2
492.324	0.2
492.678	0.2
493.031	0.19
493.385	0.19
493.738	0.19
494.091	0.18
494.445	0.17
494.798	0.17
495.151	0.17
495.504	0.17
495.857	0.17
496.21	0.17
496.564	0.15
496.916	0.16
497.269	0.14
497.622	0.14
497.975	0.14
498.328	0.14
498.681	0.13
499.033	0.13
499.386	0.13
499.739	0.12
500.091	0.13
500.444	0.12
500.796	0.12
501.149	0.12
501.501	0.11
501.854	0.12
502.206	0.11
502.558	0.11
502.91	0.11
503.263	0.11
503.615	0.11
503.967	0.1
504.319	0.1
504.671	0.1
505.023	0.1
505.375	0.09
505.726	0.1
506.078	0.1
506.43	0.09
506.782	0.09
507.133	0.08
507.485	0.09
507.837	0.1
508.188	0.09
508.54	0.09
508.891	0.09
509.243	0.08
509.594	0.08
509.945	0.08
510.296	0.08
510.648	0.08
510.999	0.07
511.35	0.08
511.701	0.08
512.052	0.08
512.403	0.08
512.754	0.08
513.105	0.07
513.456	0.07
513.807	0.07
514.157	0.08
514.508	0.07
514.859	0.06
515.209	0.06
515.56	0.07
515.91	0.07
516.261	0.07
516.611	0.06
516.962	0.07
517.312	0.07
517.662	0.07
518.013	0.07
518.363	0.07
518.713	0.06
519.063	0.07
519.413	0.06
519.763	0.06
520.113	0.06
520.463	0.07
520.813	0.07
521.163	0.07
521.512	0.06
521.862	0.06
522.212	0.07
522.562	0.06
522.911	0.06
523.261	0.06
523.61	0.06
523.96	0.06
524.309	0.06
524.658	0.07
525.008	0.06
525.357	0.06
525.706	0.06
526.056	0.05
526.405	0.05
526.754	0.06
527.103	0.06
527.452	0.06
527.801	0.06
528.15	0.06
528.499	0.06
528.847	0.05
529.196	0.07
529.545	0.06
529.893	0.06
530.242	0.06
530.591	0.07
530.939	0.07
531.288	0.06
531.636	0.07
531.985	0.06
532.333	0.06
532.681	0.06
533.029	0.06
533.378	0.06
533.726	0.06
534.074	0.06
534.422	0.05
534.77	0.06
535.118	0.06
535.466	0.06
535.814	0.06
536.162	0.06
536.509	0.07
536.857	0.06
537.205	0.06
537.552	0.06
537.9	0.06
538.248	0.05
538.595	0.06
538.943	0.06
539.29	0.06
539.637	0.06
539.985	0.06
540.332	0.06
540.679	0.06
541.026	0.05
541.373	0.06
541.721	0.06
542.068	0.05
542.415	0.06
542.762	0.05
543.108	0.05
543.455	0.05
543.802	0.04
544.149	0.05
544.496	0.05
544.842	0.04
545.189	0.04
545.535	0.05
545.882	0.05
546.228	0.04
546.575	0.04
546.921	0.04
547.267	0.04
547.614	0.05
547.96	0.04
548.306	0.04
548.652	0.05
548.998	0.05
549.344	0.04
549.69	0.04
550.036	0.04
550.382	0.05
550.728	0.04
551.074	0.04
551.42	0.05
551.765	0.05
552.111	0.05
552.457	0.06
552.802	0.05
553.148	0.05
553.493	0.05
553.839	0.05
554.184	0.05
554.529	0.04
554.875	0.05
555.22	0.05
555.565	0.05
555.91	0.05
556.255	0.06
556.6	0.05
556.945	0.05
557.29	0.05
557.635	0.05
557.98	0.05
558.325	0.05
558.67	0.05
559.014	0.05
559.359	0.05
559.704	0.05
560.048	0.04
560.393	0.04
560.737	0.04
561.082	0.05
561.426	0.04
561.77	0.04
562.115	0.04
562.459	0.05
562.803	0.05
563.147	0.05
563.491	0.05
563.835	0.05
564.179	0.05
564.523	0.05
564.867	0.05
565.211	0.05
565.555	0.05
565.899	0.06
566.242	0.05
566.586	0.04
566.93	0.05
567.273	0.06
567.617	0.05
567.96	0.05
568.304	0.05
568.647	0.05
568.99	0.05
569.334	0.06
569.677	0.04
570.02	0.05
570.363	0.05
570.706	0.05
571.049	0.05
571.392	0.05
571.735	0.05
572.078	0.05
572.421	0.06
572.764	0.06
573.106	0.06
573.449	0.05
573.792	0.05
574.134	0.05
574.477	0.05
574.819	0.05
575.162	0.05
575.504	0.04
575.847	0.05
576.189	0.05
576.531	0.05
576.873	0.05
577.215	0.05
577.558	0.05
577.9	0.04
578.242	0.04
578.584	0.04
578.926	0.05
579.267	0.04
579.609	0.05
579.951	0.05
580.293	0.05
580.634	0.05
580.976	0.05
581.318	0.05
581.659	0.04
582.001	0.05
582.342	0.04
582.683	0.04
583.025	0.04
583.366	0.05
583.707	0.04
584.049	0.04
584.39	0.04
584.731	0.04
585.072	0.04
585.413	0.05
585.754	0.04
586.095	0.04
586.435	0.04
586.776	0.04
587.117	0.04
587.458	0.04
587.798	0.04
588.139	0.04
588.48	0.03
588.82	0.04
589.161	0.04
589.501	0.04
589.841	0.04
590.182	0.04
590.522	0.04
590.862	0.05
591.202	0.05
591.542	0.04
591.882	0.04
592.222	0.04
592.562	0.05
592.902	0.04
593.242	0.04
593.582	0.05
593.922	0.05
594.261	0.04
594.601	0.04
594.941	0.05
595.28	0.04
595.62	0.04
595.959	0.04
596.299	0.04
596.638	0.04
596.977	0.04
597.317	0.05
597.656	0.05
597.995	0.05
598.334	0.06
598.673	0.05
599.012	0.05
599.351	0.05
599.69	0.05
600.029	0.05
600.368	0.06
600.707	0.05
601.046	0.05
601.384	0.05
601.723	0.05
602.061	0.04
602.4	0.05
602.738	0.05
603.077	0.05
603.415	0.05
603.754	0.05
604.092	0.05
604.43	0.05
604.768	0.04
605.107	0.05
605.445	0.05
605.783	0.04
606.121	0.05
606.459	0.05
606.796	0.05
607.134	0.04
607.472	0.04
607.81	0.04
608.148	0.05
608.485	0.06
608.823	0.05
609.16	0.04
609.498	0.04
609.835	0.04
610.173	0.04
610.51	0.05
610.847	0.04
611.185	0.05
611.522	0.05
611.859	0.05
612.196	0.05
612.533	0.05
612.87	0.05
613.207	0.06
613.544	0.06
613.881	0.06
614.217	0.06
614.554	0.05
614.891	0.06
615.228	0.06
615.564	0.06
615.901	0.06
616.237	0.06
616.574	0.05
616.91	0.06
617.246	0.06
617.583	0.06
617.919	0.06
618.255	0.06
618.591	0.05
618.927	0.05
619.263	0.06
619.599	0.06
619.935	0.05
620.271	0.06
620.607	0.06
620.943	0.06
621.279	0.06
621.614	0.06
621.95	0.06
622.286	0.06
622.621	0.06
622.957	0.06
623.292	0.05
623.627	0.06
623.963	0.05
624.298	0.06
624.633	0.05
624.968	0.05
625.304	0.05
625.639	0.05
625.974	0.04
626.309	0.05
626.644	0.05
626.979	0.06
627.313	0.05
627.648	0.05
627.983	0.05
628.318	0.05
628.652	0.05
628.987	0.05
629.321	0.04
629.656	0.04
629.99	0.04
630.325	0.04
630.659	0.05
630.993	0.04
631.327	0.05
631.662	0.03
631.996	0.04
632.33	0.04
632.664	0.04
632.998	0.03
633.332	0.04
633.666	0.04
633.999	0.04
634.333	0.04
634.667	0.04
635.001	0.04
635.334	0.04
635.668	0.04
636.001	0.04
636.335	0.05
636.668	0.04
637.001	0.04
637.335	0.05
637.668	0.05
638.001	0.04
638.334	0.04
638.668	0.04
639.001	0.04
639.334	0.04
639.667	0.04
639.999	0.04
640.332	0.04
640.665	0.05
640.998	0.04
641.331	0.05
641.663	0.04
641.996	0.04
642.328	0.04
642.661	0.04
642.993	0.04
643.326	0.05
643.658	0.04
643.99	0.03
644.323	0.04
644.655	0.04
644.987	0.04
645.319	0.04
645.651	0.05
645.983	0.04
646.315	0.04
646.647	0.05
646.979	0.05
647.31	0.05
647.642	0.04
647.974	0.04
648.305	0.05
648.637	0.05
648.968	0.05
649.3	0.05
649.631	0.05
649.963	0.04
650.294	0.05
650.625	0.05
650.957	0.05
651.288	0.05
651.619	0.05
651.95	0.05
652.281	0.04
652.612	0.05
652.943	0.05
653.274	0.05
653.604	0.05
653.935	0.04
654.266	0.05
654.596	0.05
654.927	0.05
655.258	0.05
655.588	0.05
655.918	0.05
656.249	0.03
656.579	0.05
656.909	0.04
657.24	0.05
657.57	0.05
657.9	0.05
658.23	0.04
658.56	0.05
658.89	0.05
659.22	0.04
659.55	0.05
659.88	0.05
660.209	0.05
660.539	0.06
660.869	0.05
661.198	0.05
661.528	0.05
661.857	0.04
662.187	0.05
662.516	0.04
662.846	0.04
663.175	0.04
663.504	0.04
663.833	0.04
664.163	0.05
664.492	0.04
664.821	0.05
665.15	0.05
665.479	0.04
665.807	0.04
666.136	0.05
666.465	0.05
666.794	0.05
667.122	0.05
667.451	0.05
667.78	0.06
668.108	0.06
668.437	0.04
668.765	0.05
669.093	0.06
669.422	0.05
669.75	0.05
670.078	0.05
670.406	0.05
670.734	0.06
671.062	0.05
671.39	0.05
671.718	0.05
672.046	0.05
672.374	0.04
672.702	0.05
673.029	0.04
673.357	0.05
673.685	0.05
674.012	0.05
674.34	0.05
674.667	0.05
674.995	0.05
675.322	0.05
675.649	0.04
675.977	0.05
676.304	0.05
676.631	0.05
676.958	0.06
677.285	0.04
677.612	0.04
677.939	0.05
678.266	0.05
678.593	0.05
678.92	0.05
679.246	0.05
679.573	0.04
679.9	0.04
680.226	0.05
680.553	0.04
680.879	0.04
681.206	0.05
681.532	0.05
681.858	0.04
682.184	0.05
682.511	0.05
682.837	0.05
683.163	0.05
683.489	0.05
683.815	0.05
684.141	0.05
684.467	0.05
684.793	0.04
685.118	0.04
685.444	0.05
685.77	0.04
686.095	0.05
686.421	0.05
686.746	0.05
687.072	0.04
687.397	0.04
687.723	0.04
688.048	0.05
688.373	0.05
688.698	0.05
689.023	0.04
689.349	0.05
689.674	0.05
689.999	0.04
690.323	0.04
690.648	0.04
690.973	0.04
691.298	0.05
691.623	0.05
691.947	0.05
692.272	0.05
692.596	0.05
692.921	0.05
693.245	0.05
693.57	0.05
693.894	0.06
694.218	0.05
694.543	0.05
694.867	0.05
695.191	0.04
695.515	0.06
695.839	0.05
696.163	0.05
696.487	0.05
696.811	0.05
697.135	0.05
697.458	0.05
697.782	0.05
698.106	0.05
698.429	0.05
698.753	0.05
699.076	0.04
699.4	0.05
699.723	0.04
700.046	0.04
700.37	0.05
700.693	0.05
701.016	0.05
701.339	0.05
701.662	0.05
701.985	0.05
702.308	0.05
702.631	0.05
702.954	0.05
703.277	0.05
703.599	0.05
703.922	0.04
704.245	0.05
704.567	0.04
704.89	0.05
705.212	0.05
705.535	0.04
705.857	0.04
706.179	0.04
706.502	0.04
706.824	0.04
707.146	0.04
707.468	0.05
707.79	0.04
708.112	0.04
708.434	0.04
708.756	0.05
709.078	0.05
709.399	0.04
709.721	0.05
710.043	0.05
710.364	0.05
710.686	0.05
711.007	0.05
711.329	0.05
711.65	0.05
711.972	0.05
712.293	0.05
712.614	0.05
712.935	0.05
713.256	0.05
713.577	0.05
713.898	0.05
714.219	0.05
714.54	0.05
714.861	0.04
715.182	0.05
715.503	0.04
715.823	0.05
716.144	0.03
716.464	0.03
716.785	0.04
717.105	0.04
717.426	0.05
717.746	0.04
718.066	0.03
718.387	0.04
718.707	0.03
719.027	0.05
719.347	0.03
719.667	0.05
719.987	0.04
720.307	0.03
720.627	0.04
720.947	0.04
721.266	0.04
721.586	0.03
721.906	0.03
722.225	0.04
722.545	0.04
722.864	0.04
