Data from 12-12-AQDScycling_Absorbance__687__00687.txt Node

Date: Tue Dec 12 13:48:29 EST 2023
User: kyuminlee
Spectrometer: FLMS00943
Trigger mode: 0
Integration Time (sec): 1.000000E-1
Scans to average: 1
Electric dark correction enabled: true
Nonlinearity correction enabled: false
Boxcar width: 0
XAxis mode: Wavelengths
Number of Pixels in Spectrum: 2048
>>>>>Begin Spectral Data<<<<<
179.651	-0.04
180.037	-0.04
180.424	-0.04
180.81	-0.33
181.197	0.08
181.583	0.12
181.97	-0.38
182.356	-0.91
182.743	-0
183.129	-0
183.515	0.37
183.901	-2.56
184.288	0.53
184.674	-0
185.06	0.52
185.446	-0.66
185.832	-1.41
186.218	0.45
186.604	-0.32
186.99	-0
187.376	-0
187.762	0.62
188.148	0.28
188.534	-0.34
188.92	0.08
189.305	0.09
189.691	0.16
190.077	0.15
190.463	0.12
190.848	0.12
191.234	0.22
191.619	0.14
192.005	0.11
192.391	0.03
192.776	0.2
193.161	0.17
193.547	0.08
193.932	0.02
194.318	-0.07
194.703	0.05
195.088	0.19
195.473	0.34
195.859	0.14
196.244	0.12
196.629	0.15
197.014	0.06
197.399	0.21
197.784	0.06
198.169	0.11
198.554	0.16
198.939	0.09
199.324	0.11
199.709	0.08
200.094	0.03
200.478	0.07
200.863	0.11
201.248	0.15
201.633	0.05
202.017	0.08
202.402	0.18
202.787	0.08
203.171	0.1
203.556	0.24
203.94	0.15
204.325	0.15
204.709	0.18
205.093	0.14
205.478	0.02
205.862	0.04
206.246	0.19
206.631	0.21
207.015	0.06
207.399	0.21
207.783	0.2
208.167	0.24
208.551	0.25
208.935	0.29
209.319	0.08
209.703	0.28
210.087	0.27
210.471	0.23
210.855	0.06
211.239	0.23
211.623	0.28
212.007	0.29
212.39	0.26
212.774	0.16
213.158	0.03
213.541	0.39
213.925	0.28
214.309	0.44
214.692	0.31
215.076	0.18
215.459	0.24
215.842	0.14
216.226	0.23
216.609	0.2
216.993	0.24
217.376	0.34
217.759	0.21
218.142	0.31
218.525	0.58
218.909	0.35
219.292	0.33
219.675	0.78
220.058	0.5
220.441	0.35
220.824	0.43
221.207	0.52
221.59	0.49
221.973	0.51
222.355	0.6
222.738	0.71
223.121	0.64
223.504	0.55
223.886	0.62
224.269	0.75
224.652	0.57
225.034	0.88
225.417	0.78
225.799	0.77
226.182	0.81
226.564	0.79
226.947	0.71
227.329	0.73
227.711	0.85
228.094	0.9
228.476	0.88
228.858	0.8
229.24	0.74
229.623	0.87
230.005	0.8
230.387	0.77
230.769	0.81
231.151	0.96
231.533	0.89
231.915	1.12
232.297	1.13
232.679	0.94
233.061	1.02
233.442	1.05
233.824	1.02
234.206	1.05
234.588	0.99
234.969	0.99
235.351	1.04
235.733	0.99
236.114	1.15
236.496	1.02
236.877	1.08
237.259	1.06
237.64	1.04
238.022	1.02
238.403	0.97
238.784	0.94
239.165	1
239.547	1.01
239.928	1.11
240.309	0.98
240.69	1.03
241.071	1.12
241.452	1.22
241.834	1.07
242.215	1.01
242.595	1.09
242.976	1.11
243.357	1.15
243.738	0.94
244.119	1.34
244.5	1.15
244.881	1.17
245.261	1.15
245.642	1.21
246.023	1.11
246.403	1.2
246.784	1.18
247.164	1.24
247.545	1.24
247.925	1.31
248.306	1.14
248.686	1.35
249.067	1.25
249.447	1.28
249.827	1.33
250.207	1.34
250.588	1.19
250.968	1.42
251.348	1.21
251.728	1.49
252.108	1.22
252.488	1.3
252.868	1.35
253.248	1.29
253.628	1.45
254.008	1.44
254.388	1.21
254.768	1.3
255.147	1.35
255.527	1.4
255.907	1.22
256.287	1.31
256.666	1.49
257.046	1.38
257.425	1.46
257.805	1.35
258.184	1.27
258.564	1.36
258.943	1.3
259.323	1.55
259.702	1.43
260.081	1.49
260.461	1.51
260.84	1.5
261.219	1.73
261.598	1.47
261.977	1.38
262.356	1.47
262.736	1.39
263.115	1.7
263.494	1.49
263.873	1.33
264.251	1.53
264.63	1.6
265.009	1.38
265.388	1.44
265.767	1.43
266.145	1.45
266.524	1.44
266.903	1.44
267.281	1.41
267.66	1.62
268.039	1.55
268.417	1.42
268.796	1.39
269.174	1.44
269.552	1.38
269.931	1.6
270.309	1.49
270.687	1.94
271.066	1.49
271.444	1.49
271.822	1.5
272.2	1.37
272.578	1.41
272.956	1.46
273.334	1.42
273.712	1.46
274.09	1.41
274.468	1.29
274.846	1.26
275.224	1.37
275.602	1.42
275.98	1.52
276.357	1.42
276.735	1.58
277.113	1.25
277.49	1.29
277.868	1.3
278.246	1.36
278.623	1.4
279.001	1.4
279.378	1.35
279.756	1.44
280.133	1.68
280.51	1.3
280.888	1.44
281.265	1.36
281.642	1.4
282.019	1.52
282.396	1.5
282.773	1.57
283.151	1.51
283.528	1.4
283.905	1.42
284.282	1.39
284.659	1.58
285.035	1.33
285.412	1.34
285.789	1.54
286.166	1.4
286.543	1.52
286.919	1.35
287.296	1.34
287.673	1.63
288.049	1.62
288.426	1.54
288.802	1.57
289.179	1.35
289.555	1.52
289.932	1.38
290.308	1.27
290.684	1.39
291.061	1.26
291.437	1.5
291.813	1.4
292.189	1.34
292.565	1.31
292.942	1.31
293.318	1.31
293.694	1.38
294.07	1.35
294.446	1.39
294.822	1.68
295.197	1.39
295.573	1.41
295.949	1.64
296.325	1.57
296.701	1.72
297.076	1.71
297.452	1.54
297.828	1.42
298.203	1.65
298.579	1.36
298.954	1.38
299.33	1.43
299.705	1.54
300.081	1.51
300.456	1.5
300.831	1.45
301.206	1.54
301.582	1.73
301.957	1.49
302.332	1.65
302.707	1.51
303.082	1.45
303.457	1.51
303.832	1.62
304.207	1.37
304.582	1.47
304.957	1.58
305.332	1.49
305.707	1.61
306.082	1.65
306.456	1.49
306.831	1.45
307.206	1.52
307.58	1.52
307.955	1.58
308.33	1.43
308.704	1.42
309.079	1.49
309.453	1.58
309.828	1.52
310.202	1.58
310.576	1.39
310.951	1.49
311.325	1.5
311.699	1.53
312.073	1.41
312.447	1.47
312.821	1.48
313.196	1.68
313.57	1.4
313.944	1.47
314.317	1.33
314.691	1.57
315.065	1.46
315.439	1.54
315.813	1.7
316.187	1.46
316.56	1.62
316.934	1.51
317.308	1.51
317.681	1.58
318.055	1.53
318.428	1.47
318.802	1.64
319.175	1.52
319.549	1.41
319.922	1.43
320.295	1.43
320.669	1.5
321.042	1.47
321.415	1.69
321.788	1.56
322.162	1.48
322.535	1.51
322.908	1.51
323.281	1.51
323.654	1.77
324.027	1.61
324.4	1.67
324.773	1.47
325.145	1.55
325.518	1.53
325.891	1.39
326.264	1.52
326.636	1.44
327.009	1.45
327.382	1.44
327.754	1.74
328.127	1.54
328.499	1.57
328.872	1.53
329.244	1.62
329.616	1.45
329.989	1.5
330.361	1.48
330.733	1.44
331.106	1.51
331.478	1.55
331.85	1.47
332.222	1.34
332.594	1.42
332.966	1.58
333.338	1.7
333.71	1.67
334.082	1.67
334.454	1.5
334.826	1.49
335.197	1.41
335.569	1.49
335.941	1.38
336.312	1.63
336.684	1.56
337.056	1.68
337.427	1.56
337.799	1.62
338.17	1.49
338.542	1.51
338.913	1.54
339.284	1.62
339.656	1.56
340.027	1.59
340.398	1.59
340.769	1.51
341.141	1.64
341.512	1.51
341.883	1.56
342.254	1.43
342.625	1.57
342.996	1.56
343.367	1.5
343.738	1.58
344.108	1.48
344.479	1.65
344.85	1.44
345.221	1.56
345.591	1.38
345.962	1.4
346.333	1.47
346.703	1.28
347.074	1.39
347.444	1.35
347.815	1.4
348.185	1.4
348.556	1.31
348.926	1.39
349.296	1.37
349.666	1.33
350.037	1.29
350.407	1.3
350.777	1.48
351.147	1.38
351.517	1.61
351.887	1.23
352.257	1.66
352.627	1.42
352.997	1.28
353.367	1.36
353.737	1.42
354.106	1.35
354.476	1.35
354.846	1.33
355.216	1.39
355.585	1.38
355.955	1.34
356.324	1.33
356.694	1.34
357.063	1.27
357.433	1.29
357.802	1.31
358.171	1.22
358.541	1.29
358.91	1.24
359.279	1.26
359.648	1.19
360.017	1.25
360.387	1.16
360.756	1.15
361.125	1.19
361.494	1.16
361.863	1.12
362.231	1.06
362.6	1.15
362.969	1.12
363.338	1.04
363.707	1.09
364.075	1.14
364.444	1.01
364.813	1.04
365.181	1.05
365.55	1.03
365.918	1.03
366.287	1.01
366.655	1.03
367.024	1.03
367.392	1.02
367.76	0.96
368.128	1
368.497	0.97
368.865	0.96
369.233	0.95
369.601	0.91
369.969	0.9
370.337	0.92
370.705	0.89
371.073	0.89
371.441	0.89
371.809	0.88
372.177	0.92
372.544	0.89
372.912	0.9
373.28	0.86
373.647	0.9
374.015	0.89
374.383	0.86
374.75	0.89
375.118	0.88
375.485	0.87
375.853	0.87
376.22	0.84
376.587	0.84
376.955	0.86
377.322	0.83
377.689	0.83
378.056	0.84
378.423	0.84
378.79	0.82
379.157	0.85
379.524	0.85
379.891	0.84
380.258	0.88
380.625	0.84
380.992	0.85
381.359	0.87
381.726	0.88
382.092	0.86
382.459	0.86
382.826	0.85
383.192	0.88
383.559	0.85
383.925	0.9
384.292	0.87
384.658	0.93
385.025	0.88
385.391	0.91
385.757	0.91
386.123	0.9
386.49	0.89
386.856	0.93
387.222	0.92
387.588	0.88
387.954	0.96
388.32	0.93
388.686	0.9
389.052	0.89
389.418	0.93
389.784	0.91
390.15	0.94
390.515	0.92
390.881	0.94
391.247	0.89
391.613	0.93
391.978	0.88
392.344	0.96
392.709	0.89
393.075	0.9
393.44	0.91
393.806	0.89
394.171	0.92
394.536	0.89
394.902	0.9
395.267	0.92
395.632	0.89
395.997	0.84
396.362	0.9
396.727	0.89
397.092	0.9
397.457	0.91
397.822	0.87
398.187	0.87
398.552	0.84
398.917	0.87
399.282	0.83
399.646	0.81
400.011	0.91
400.376	0.81
400.74	0.87
401.105	0.83
401.47	0.83
401.834	0.82
402.199	0.82
402.563	0.79
402.927	0.75
403.292	0.83
403.656	0.83
404.02	0.79
404.384	0.8
404.749	0.79
405.113	0.77
405.477	0.77
405.841	0.75
406.205	0.74
406.569	0.73
406.933	0.72
407.296	0.73
407.66	0.73
408.024	0.72
408.388	0.72
408.752	0.72
409.115	0.74
409.479	0.71
409.842	0.7
410.206	0.69
410.569	0.7
410.933	0.71
411.296	0.68
411.66	0.7
412.023	0.66
412.386	0.68
412.749	0.67
413.113	0.67
413.476	0.63
413.839	0.65
414.202	0.63
414.565	0.64
414.928	0.67
415.291	0.63
415.654	0.63
416.017	0.64
416.38	0.63
416.742	0.63
417.105	0.6
417.468	0.61
417.83	0.64
418.193	0.61
418.556	0.61
418.918	0.61
419.281	0.63
419.643	0.6
420.005	0.6
420.368	0.61
420.73	0.59
421.092	0.58
421.455	0.6
421.817	0.58
422.179	0.57
422.541	0.58
422.903	0.57
423.265	0.57
423.627	0.57
423.989	0.58
424.351	0.57
424.713	0.56
425.075	0.57
425.436	0.57
425.798	0.56
426.16	0.57
426.521	0.57
426.883	0.57
427.245	0.59
427.606	0.54
427.967	0.54
428.329	0.55
428.69	0.55
429.052	0.55
429.413	0.57
429.774	0.55
430.135	0.54
430.497	0.53
430.858	0.53
431.219	0.52
431.58	0.53
431.941	0.53
432.302	0.54
432.663	0.52
433.024	0.54
433.384	0.53
433.745	0.52
434.106	0.52
434.467	0.53
434.827	0.53
435.188	0.52
435.548	0.52
435.909	0.52
436.269	0.52
436.63	0.5
436.99	0.51
437.351	0.52
437.711	0.52
438.071	0.5
438.431	0.51
438.792	0.49
439.152	0.51
439.512	0.49
439.872	0.49
440.232	0.52
440.592	0.5
440.952	0.49
441.312	0.48
441.671	0.47
442.031	0.46
442.391	0.48
442.751	0.5
443.11	0.48
443.47	0.47
443.83	0.47
444.189	0.46
444.549	0.46
444.908	0.47
445.267	0.45
445.627	0.45
445.986	0.44
446.345	0.45
446.705	0.43
447.064	0.43
447.423	0.44
447.782	0.44
448.141	0.44
448.5	0.43
448.859	0.44
449.218	0.43
449.577	0.42
449.936	0.44
450.295	0.43
450.653	0.42
451.012	0.42
451.371	0.43
451.729	0.42
452.088	0.42
452.447	0.44
452.805	0.41
453.163	0.42
453.522	0.42
453.88	0.4
454.239	0.4
454.597	0.4
454.955	0.39
455.313	0.39
455.671	0.39
456.029	0.38
456.388	0.37
456.746	0.38
457.104	0.38
457.461	0.36
457.819	0.37
458.177	0.35
458.535	0.35
458.893	0.35
459.25	0.35
459.608	0.36
459.966	0.34
460.323	0.34
460.681	0.33
461.038	0.33
461.396	0.32
461.753	0.32
462.111	0.32
462.468	0.32
462.825	0.31
463.182	0.32
463.54	0.31
463.897	0.3
464.254	0.31
464.611	0.3
464.968	0.3
465.325	0.31
465.682	0.29
466.039	0.3
466.395	0.3
466.752	0.29
467.109	0.29
467.466	0.29
467.822	0.29
468.179	0.28
468.535	0.27
468.892	0.28
469.248	0.27
469.605	0.27
469.961	0.26
470.318	0.27
470.674	0.26
471.03	0.25
471.386	0.26
471.743	0.25
472.099	0.24
472.455	0.25
472.811	0.24
473.167	0.24
473.523	0.24
473.879	0.24
474.235	0.23
474.59	0.23
474.946	0.22
475.302	0.23
475.657	0.22
476.013	0.23
476.369	0.21
476.724	0.22
477.08	0.22
477.435	0.21
477.791	0.21
478.146	0.21
478.501	0.21
478.857	0.21
479.212	0.21
479.567	0.2
479.922	0.19
480.277	0.19
480.632	0.19
480.987	0.19
481.342	0.18
481.697	0.18
482.052	0.18
482.407	0.18
482.762	0.17
483.116	0.17
483.471	0.17
483.826	0.17
484.18	0.17
484.535	0.17
484.89	0.16
485.244	0.17
485.598	0.17
485.953	0.17
486.307	0.16
486.661	0.16
487.016	0.16
487.37	0.16
487.724	0.16
488.078	0.15
488.432	0.15
488.786	0.15
489.14	0.15
489.494	0.15
489.848	0.15
490.202	0.15
490.556	0.15
490.91	0.15
491.263	0.14
491.617	0.14
491.971	0.14
492.324	0.14
492.678	0.14
493.031	0.15
493.385	0.14
493.738	0.14
494.091	0.14
494.445	0.14
494.798	0.14
495.151	0.13
495.504	0.13
495.857	0.13
496.21	0.14
496.564	0.13
496.916	0.14
497.269	0.12
497.622	0.13
497.975	0.12
498.328	0.13
498.681	0.12
499.033	0.12
499.386	0.11
499.739	0.12
500.091	0.12
500.444	0.12
500.796	0.12
501.149	0.12
501.501	0.12
501.854	0.12
502.206	0.12
502.558	0.12
502.91	0.12
503.263	0.11
503.615	0.11
503.967	0.11
504.319	0.12
504.671	0.12
505.023	0.11
505.375	0.11
505.726	0.12
506.078	0.11
506.43	0.12
506.782	0.11
507.133	0.11
507.485	0.11
507.837	0.12
508.188	0.12
508.54	0.11
508.891	0.12
509.243	0.11
509.594	0.11
509.945	0.11
510.296	0.11
510.648	0.12
510.999	0.11
511.35	0.11
511.701	0.11
512.052	0.12
512.403	0.12
512.754	0.12
513.105	0.11
513.456	0.11
513.807	0.11
514.157	0.12
514.508	0.11
514.859	0.11
515.209	0.11
515.56	0.11
515.91	0.1
516.261	0.11
516.611	0.11
516.962	0.11
517.312	0.11
517.662	0.11
518.013	0.11
518.363	0.12
518.713	0.11
519.063	0.11
519.413	0.11
519.763	0.12
520.113	0.12
520.463	0.12
520.813	0.12
521.163	0.11
521.512	0.11
521.862	0.12
522.212	0.11
522.562	0.12
522.911	0.12
523.261	0.11
523.61	0.12
523.96	0.11
524.309	0.11
524.658	0.12
525.008	0.12
525.357	0.11
525.706	0.12
526.056	0.11
526.405	0.11
526.754	0.11
527.103	0.11
527.452	0.11
527.801	0.11
528.15	0.11
528.499	0.11
528.847	0.12
529.196	0.12
529.545	0.12
529.893	0.12
530.242	0.11
530.591	0.12
530.939	0.13
531.288	0.12
531.636	0.12
531.985	0.12
532.333	0.12
532.681	0.12
533.029	0.12
533.378	0.12
533.726	0.11
534.074	0.13
534.422	0.12
534.77	0.12
535.118	0.12
535.466	0.13
535.814	0.12
536.162	0.12
536.509	0.12
536.857	0.12
537.205	0.13
537.552	0.12
537.9	0.12
538.248	0.12
538.595	0.12
538.943	0.12
539.29	0.12
539.637	0.11
539.985	0.12
540.332	0.12
540.679	0.12
541.026	0.12
541.373	0.13
541.721	0.12
542.068	0.12
542.415	0.12
542.762	0.12
543.108	0.11
543.455	0.11
543.802	0.11
544.149	0.11
544.496	0.12
544.842	0.11
545.189	0.11
545.535	0.11
545.882	0.12
546.228	0.1
546.575	0.1
546.921	0.1
547.267	0.1
547.614	0.11
547.96	0.11
548.306	0.1
548.652	0.11
548.998	0.12
549.344	0.11
549.69	0.12
550.036	0.11
550.382	0.12
550.728	0.1
551.074	0.11
551.42	0.11
551.765	0.12
552.111	0.12
552.457	0.11
552.802	0.12
553.148	0.11
553.493	0.11
553.839	0.12
554.184	0.12
554.529	0.11
554.875	0.12
555.22	0.12
555.565	0.12
555.91	0.12
556.255	0.12
556.6	0.13
556.945	0.11
557.29	0.12
557.635	0.12
557.98	0.12
558.325	0.12
558.67	0.12
559.014	0.12
559.359	0.12
559.704	0.12
560.048	0.11
560.393	0.11
560.737	0.11
561.082	0.12
561.426	0.1
561.77	0.11
562.115	0.11
562.459	0.11
562.803	0.12
563.147	0.11
563.491	0.12
563.835	0.12
564.179	0.12
564.523	0.12
564.867	0.11
565.211	0.12
565.555	0.13
565.899	0.12
566.242	0.12
566.586	0.11
566.93	0.12
567.273	0.12
567.617	0.13
567.96	0.12
568.304	0.12
568.647	0.12
568.99	0.12
569.334	0.12
569.677	0.12
570.02	0.12
570.363	0.12
570.706	0.12
571.049	0.12
571.392	0.12
571.735	0.12
572.078	0.12
572.421	0.13
572.764	0.12
573.106	0.12
573.449	0.12
573.792	0.12
574.134	0.12
574.477	0.12
574.819	0.11
575.162	0.13
575.504	0.12
575.847	0.12
576.189	0.12
576.531	0.12
576.873	0.11
577.215	0.12
577.558	0.13
577.9	0.11
578.242	0.12
578.584	0.12
578.926	0.12
579.267	0.12
579.609	0.12
579.951	0.12
580.293	0.11
580.634	0.12
580.976	0.12
581.318	0.12
581.659	0.11
582.001	0.12
582.342	0.12
582.683	0.12
583.025	0.11
583.366	0.11
583.707	0.11
584.049	0.11
584.39	0.11
584.731	0.11
585.072	0.11
585.413	0.12
585.754	0.11
586.095	0.12
586.435	0.12
586.776	0.12
587.117	0.12
587.458	0.11
587.798	0.12
588.139	0.12
588.48	0.11
588.82	0.11
589.161	0.12
589.501	0.11
589.841	0.11
590.182	0.11
590.522	0.11
590.862	0.12
591.202	0.12
591.542	0.11
591.882	0.11
592.222	0.12
592.562	0.11
592.902	0.11
593.242	0.11
593.582	0.11
593.922	0.11
594.261	0.11
594.601	0.12
594.941	0.11
595.28	0.11
595.62	0.12
595.959	0.11
596.299	0.11
596.638	0.11
596.977	0.12
597.317	0.12
597.656	0.12
597.995	0.12
598.334	0.13
598.673	0.12
599.012	0.12
599.351	0.13
599.69	0.11
600.029	0.12
600.368	0.13
600.707	0.12
601.046	0.12
601.384	0.12
601.723	0.12
602.061	0.11
602.4	0.12
602.738	0.13
603.077	0.13
603.415	0.11
603.754	0.12
604.092	0.12
604.43	0.12
604.768	0.13
605.107	0.12
605.445	0.12
605.783	0.11
606.121	0.11
606.459	0.12
606.796	0.12
607.134	0.11
607.472	0.11
607.81	0.12
608.148	0.12
608.485	0.12
608.823	0.12
609.16	0.12
609.498	0.12
609.835	0.11
610.173	0.12
610.51	0.11
610.847	0.12
611.185	0.11
611.522	0.12
611.859	0.12
612.196	0.12
612.533	0.12
612.87	0.12
613.207	0.12
613.544	0.12
613.881	0.13
614.217	0.12
614.554	0.13
614.891	0.12
615.228	0.12
615.564	0.13
615.901	0.12
616.237	0.13
616.574	0.12
616.91	0.13
617.246	0.12
617.583	0.12
617.919	0.13
618.255	0.13
618.591	0.13
618.927	0.12
619.263	0.13
619.599	0.13
619.935	0.13
620.271	0.13
620.607	0.13
620.943	0.12
621.279	0.12
621.614	0.12
621.95	0.12
622.286	0.13
622.621	0.12
622.957	0.12
623.292	0.12
623.627	0.12
623.963	0.12
624.298	0.12
624.633	0.12
624.968	0.12
625.304	0.12
625.639	0.11
625.974	0.11
626.309	0.11
626.644	0.11
626.979	0.12
627.313	0.12
627.648	0.11
627.983	0.12
628.318	0.11
628.652	0.12
628.987	0.11
629.321	0.12
629.656	0.11
629.99	0.11
630.325	0.11
630.659	0.11
630.993	0.11
631.327	0.11
631.662	0.1
631.996	0.1
632.33	0.1
632.664	0.1
632.998	0.1
633.332	0.1
633.666	0.11
633.999	0.1
634.333	0.1
634.667	0.11
635.001	0.1
635.334	0.1
635.668	0.1
636.001	0.1
636.335	0.1
636.668	0.1
637.001	0.1
637.335	0.1
637.668	0.11
638.001	0.1
638.334	0.1
638.668	0.1
639.001	0.1
639.334	0.1
639.667	0.09
639.999	0.1
640.332	0.11
640.665	0.1
640.998	0.11
641.331	0.11
641.663	0.1
641.996	0.11
642.328	0.11
642.661	0.11
642.993	0.1
643.326	0.12
643.658	0.1
643.99	0.1
644.323	0.1
644.655	0.1
644.987	0.1
645.319	0.11
645.651	0.11
645.983	0.1
646.315	0.1
646.647	0.1
646.979	0.11
647.31	0.1
647.642	0.1
647.974	0.1
648.305	0.11
648.637	0.1
648.968	0.1
649.3	0.1
649.631	0.1
649.963	0.1
650.294	0.11
650.625	0.1
650.957	0.11
651.288	0.11
651.619	0.11
651.95	0.1
652.281	0.11
652.612	0.11
652.943	0.11
653.274	0.12
653.604	0.11
653.935	0.1
654.266	0.11
654.596	0.11
654.927	0.1
655.258	0.11
655.588	0.11
655.918	0.11
656.249	0.09
656.579	0.1
656.909	0.1
657.24	0.1
657.57	0.11
657.9	0.1
658.23	0.11
658.56	0.1
658.89	0.11
659.22	0.1
659.55	0.1
659.88	0.11
660.209	0.1
660.539	0.1
660.869	0.1
661.198	0.1
661.528	0.1
661.857	0.1
662.187	0.1
662.516	0.1
662.846	0.1
663.175	0.1
663.504	0.1
663.833	0.09
664.163	0.1
664.492	0.1
664.821	0.1
665.15	0.1
665.479	0.1
665.807	0.1
666.136	0.1
666.465	0.1
666.794	0.1
667.122	0.11
667.451	0.1
667.78	0.1
668.108	0.1
668.437	0.1
668.765	0.1
669.093	0.11
669.422	0.11
669.75	0.11
670.078	0.1
670.406	0.11
670.734	0.1
671.062	0.1
671.39	0.1
671.718	0.1
672.046	0.1
672.374	0.1
672.702	0.1
673.029	0.09
673.357	0.09
673.685	0.11
674.012	0.1
674.34	0.1
674.667	0.1
674.995	0.1
675.322	0.1
675.649	0.09
675.977	0.09
676.304	0.09
676.631	0.1
676.958	0.1
677.285	0.09
677.612	0.09
677.939	0.09
678.266	0.1
678.593	0.09
678.92	0.09
679.246	0.09
679.573	0.09
679.9	0.09
680.226	0.09
680.553	0.09
680.879	0.09
681.206	0.09
681.532	0.1
681.858	0.09
682.184	0.09
682.511	0.09
682.837	0.09
683.163	0.1
683.489	0.1
683.815	0.1
684.141	0.1
684.467	0.1
684.793	0.09
685.118	0.1
685.444	0.09
685.77	0.1
686.095	0.1
686.421	0.09
686.746	0.1
687.072	0.1
687.397	0.09
687.723	0.1
688.048	0.1
688.373	0.09
688.698	0.09
689.023	0.09
689.349	0.09
689.674	0.09
689.999	0.09
690.323	0.09
690.648	0.08
690.973	0.08
691.298	0.08
691.623	0.08
691.947	0.08
692.272	0.08
692.596	0.09
692.921	0.09
693.245	0.09
693.57	0.09
693.894	0.1
694.218	0.1
694.543	0.09
694.867	0.09
695.191	0.08
695.515	0.1
695.839	0.08
696.163	0.09
696.487	0.09
696.811	0.09
697.135	0.09
697.458	0.09
697.782	0.09
698.106	0.09
698.429	0.1
698.753	0.08
699.076	0.08
699.4	0.09
699.723	0.09
700.046	0.08
700.37	0.09
700.693	0.09
701.016	0.08
701.339	0.09
701.662	0.09
701.985	0.09
702.308	0.08
702.631	0.09
702.954	0.09
703.277	0.08
703.599	0.09
703.922	0.08
704.245	0.08
704.567	0.08
704.89	0.08
705.212	0.08
705.535	0.08
705.857	0.08
706.179	0.07
706.502	0.08
706.824	0.07
707.146	0.08
707.468	0.09
707.79	0.08
708.112	0.08
708.434	0.08
708.756	0.08
709.078	0.08
709.399	0.08
709.721	0.08
710.043	0.09
710.364	0.08
710.686	0.08
711.007	0.08
711.329	0.09
711.65	0.09
711.972	0.08
712.293	0.09
712.614	0.08
712.935	0.09
713.256	0.08
713.577	0.09
713.898	0.09
714.219	0.07
714.54	0.07
714.861	0.08
715.182	0.08
715.503	0.07
715.823	0.08
716.144	0.08
716.464	0.07
716.785	0.07
717.105	0.07
717.426	0.08
717.746	0.07
718.066	0.07
718.387	0.07
718.707	0.07
719.027	0.07
719.347	0.07
719.667	0.08
719.987	0.07
720.307	0.07
720.627	0.07
720.947	0.08
721.266	0.07
721.586	0.06
721.906	0.07
722.225	0.07
722.545	0.07
722.864	0.06
723.184	0.08
723.503	0.07
723.823	0.07
724.142	0.07
724.461	0.06
724.78	0.07
725.099	0.08
