Data from 12-12-AQDScycling_Absorbance__62__00062.txt Node

Date: Tue Dec 12 11:12:14 EST 2023
User: kyuminlee
Spectrometer: FLMS00943
Trigger mode: 0
Integration Time (sec): 1.000000E-1
Scans to average: 1
Electric dark correction enabled: true
Nonlinearity correction enabled: false
Boxcar width: 0
XAxis mode: Wavelengths
Number of Pixels in Spectrum: 2048
>>>>>Begin Spectral Data<<<<<
179.651	-0.14
180.037	-0.14
180.424	-0.14
180.81	-0.09
181.197	0.18
181.583	0.48
181.97	0.13
182.356	-0
182.743	-0
183.129	0.14
183.515	0.04
183.901	-2.41
184.288	-0.06
184.674	-0
185.06	-0.76
185.446	-0
185.832	-0.81
186.218	0.26
186.604	-0
186.99	-0.37
187.376	-0.22
187.762	-0
188.148	0.44
188.534	-0.15
188.92	0.1
189.305	0.23
189.691	0.16
190.077	0.24
190.463	0.27
190.848	0.11
191.234	0.06
191.619	0.11
192.005	0.14
192.391	0.12
192.776	0.17
193.161	0.49
193.547	0.15
193.932	0.11
194.318	0.06
194.703	0.28
195.088	0.54
195.473	0.24
195.859	0.19
196.244	0.2
196.629	0.2
197.014	0.32
197.399	0.19
197.784	0.4
198.169	0.29
198.554	0.52
198.939	0.27
199.324	0.28
199.709	0.14
200.094	0.08
200.478	0.28
200.863	0.23
201.248	0.18
201.633	0.21
202.017	0.21
202.402	0.28
202.787	0.14
203.171	0.2
203.556	0.28
203.94	0.16
204.325	0.29
204.709	0.28
205.093	0.18
205.478	0.23
205.862	0.17
206.246	0.17
206.631	0.17
207.015	0.14
207.399	0.26
207.783	0.17
208.167	0.14
208.551	0.31
208.935	0.24
209.319	0.13
209.703	0.24
210.087	0.2
210.471	0.15
210.855	0.19
211.239	0.39
211.623	0.26
212.007	0.44
212.39	0.41
212.774	0.3
213.158	0.33
213.541	0.21
213.925	0.4
214.309	0.51
214.692	0.36
215.076	0.42
215.459	0.23
215.842	0.12
216.226	0.3
216.609	0.35
216.993	0.29
217.376	0.6
217.759	0.24
218.142	0.41
218.525	0.82
218.909	0.49
219.292	0.27
219.675	0.43
220.058	0.4
220.441	0.57
220.824	0.53
221.207	0.73
221.59	0.45
221.973	0.46
222.355	0.75
222.738	0.7
223.121	0.71
223.504	0.71
223.886	0.76
224.269	0.85
224.652	0.63
225.034	0.96
225.417	0.77
225.799	0.72
226.182	1.06
226.564	1.1
226.947	0.84
227.329	0.89
227.711	0.88
228.094	1.08
228.476	0.93
228.858	0.9
229.24	0.87
229.623	0.94
230.005	0.8
230.387	0.83
230.769	0.9
231.151	0.98
231.533	1
231.915	0.98
232.297	1.14
232.679	0.99
233.061	1.05
233.442	1.16
233.824	1.09
234.206	1.13
234.588	1.1
234.969	1.04
235.351	1.07
235.733	1.1
236.114	1.15
236.496	1.32
236.877	1.35
237.259	1.12
237.64	1.14
238.022	1.19
238.403	1.24
238.784	1.18
239.165	0.93
239.547	1.12
239.928	1.09
240.309	1.02
240.69	1.12
241.071	1.13
241.452	1.29
241.834	1.12
242.215	1.04
242.595	1.17
242.976	1.2
243.357	1.19
243.738	1.1
244.119	1.29
244.5	1.2
244.881	1.19
245.261	1.28
245.642	1.13
246.023	1.26
246.403	1.27
246.784	1.31
247.164	1.37
247.545	1.46
247.925	1.3
248.306	1.2
248.686	1.44
249.067	1.3
249.447	1.34
249.827	1.52
250.207	1.46
250.588	1.32
250.968	1.43
251.348	1.31
251.728	1.54
252.108	1.43
252.488	1.6
252.868	1.39
253.248	1.43
253.628	1.46
254.008	1.55
254.388	1.4
254.768	1.48
255.147	1.41
255.527	1.48
255.907	1.38
256.287	1.4
256.666	1.43
257.046	1.51
257.425	1.53
257.805	1.38
258.184	1.42
258.564	1.55
258.943	1.35
259.323	1.52
259.702	1.41
260.081	1.47
260.461	1.64
260.84	1.56
261.219	1.6
261.598	1.57
261.977	1.52
262.356	1.38
262.736	1.48
263.115	1.69
263.494	1.43
263.873	1.5
264.251	1.44
264.63	1.65
265.009	1.69
265.388	1.56
265.767	1.44
266.145	1.45
266.524	1.43
266.903	1.5
267.281	1.54
267.66	1.52
268.039	1.5
268.417	1.53
268.796	1.48
269.174	1.58
269.552	1.48
269.931	1.63
270.309	1.53
270.687	1.64
271.066	1.67
271.444	1.48
271.822	1.55
272.2	1.53
272.578	1.46
272.956	1.43
273.334	1.37
273.712	1.42
274.09	1.64
274.468	1.45
274.846	1.32
275.224	1.43
275.602	1.7
275.98	1.74
276.357	1.49
276.735	1.51
277.113	1.53
277.49	1.47
277.868	1.42
278.246	1.53
278.623	1.35
279.001	1.43
279.378	1.45
279.756	1.57
280.133	1.71
280.51	1.41
280.888	1.41
281.265	1.31
281.642	1.51
282.019	1.82
282.396	1.73
282.773	1.53
283.151	1.58
283.528	1.5
283.905	1.46
284.282	1.45
284.659	1.52
285.035	1.45
285.412	1.43
285.789	1.53
286.166	1.46
286.543	1.44
286.919	1.56
287.296	1.53
287.673	1.74
288.049	1.66
288.426	1.54
288.802	1.62
289.179	1.51
289.555	1.72
289.932	1.51
290.308	1.38
290.684	1.41
291.061	1.4
291.437	1.5
291.813	1.43
292.189	1.27
292.565	1.48
292.942	1.43
293.318	1.53
293.694	1.48
294.07	1.36
294.446	1.49
294.822	1.68
295.197	1.54
295.573	1.64
295.949	1.46
296.325	1.59
296.701	1.45
297.076	1.7
297.452	1.64
297.828	1.45
298.203	1.68
298.579	1.53
298.954	1.56
299.33	1.41
299.705	1.54
300.081	1.64
300.456	1.62
300.831	1.54
301.206	1.42
301.582	1.54
301.957	1.53
302.332	1.52
302.707	1.43
303.082	1.35
303.457	1.56
303.832	1.49
304.207	1.46
304.582	1.4
304.957	1.43
305.332	1.49
305.707	1.38
306.082	1.44
306.456	1.53
306.831	1.35
307.206	1.49
307.58	1.38
307.955	1.36
308.33	1.37
308.704	1.42
309.079	1.33
309.453	1.58
309.828	1.43
310.202	1.35
310.576	1.3
310.951	1.44
311.325	1.41
311.699	1.41
312.073	1.3
312.447	1.38
312.821	1.24
313.196	1.47
313.57	1.38
313.944	1.29
314.317	1.33
314.691	1.42
315.065	1.32
315.439	1.41
315.813	1.37
316.187	1.33
316.56	1.5
316.934	1.37
317.308	1.33
317.681	1.39
318.055	1.5
318.428	1.38
318.802	1.41
319.175	1.37
319.549	1.5
319.922	1.3
320.295	1.32
320.669	1.5
321.042	1.46
321.415	1.44
321.788	1.37
322.162	1.28
322.535	1.36
322.908	1.46
323.281	1.34
323.654	1.46
324.027	1.44
324.4	1.53
324.773	1.51
325.145	1.49
325.518	1.39
325.891	1.41
326.264	1.52
326.636	1.41
327.009	1.46
327.382	1.38
327.754	1.52
328.127	1.33
328.499	1.43
328.872	1.38
329.244	1.43
329.616	1.3
329.989	1.31
330.361	1.45
330.733	1.44
331.106	1.43
331.478	1.56
331.85	1.43
332.222	1.37
332.594	1.48
332.966	1.47
333.338	1.59
333.71	1.62
334.082	1.5
334.454	1.46
334.826	1.44
335.197	1.43
335.569	1.46
335.941	1.4
336.312	1.36
336.684	1.31
337.056	1.43
337.427	1.47
337.799	1.45
338.17	1.4
338.542	1.35
338.913	1.48
339.284	1.55
339.656	1.36
340.027	1.5
340.398	1.54
340.769	1.46
341.141	1.52
341.512	1.44
341.883	1.42
342.254	1.45
342.625	1.49
342.996	1.42
343.367	1.48
343.738	1.53
344.108	1.36
344.479	1.49
344.85	1.37
345.221	1.52
345.591	1.34
345.962	1.47
346.333	1.38
346.703	1.32
347.074	1.41
347.444	1.33
347.815	1.43
348.185	1.37
348.556	1.38
348.926	1.34
349.296	1.31
349.666	1.33
350.037	1.28
350.407	1.34
350.777	1.31
351.147	1.33
351.517	1.49
351.887	1.36
352.257	1.36
352.627	1.39
352.997	1.26
353.367	1.32
353.737	1.46
354.106	1.49
354.476	1.37
354.846	1.47
355.216	1.38
355.585	1.47
355.955	1.45
356.324	1.47
356.694	1.37
357.063	1.43
357.433	1.33
357.802	1.37
358.171	1.43
358.541	1.36
358.91	1.44
359.279	1.39
359.648	1.34
360.017	1.4
360.387	1.45
360.756	1.3
361.125	1.5
361.494	1.43
361.863	1.43
362.231	1.48
362.6	1.45
362.969	1.53
363.338	1.39
363.707	1.44
364.075	1.37
364.444	1.31
364.813	1.35
365.181	1.41
365.55	1.5
365.918	1.56
366.287	1.42
366.655	1.49
367.024	1.47
367.392	1.41
367.76	1.46
368.128	1.45
368.497	1.28
368.865	1.4
369.233	1.47
369.601	1.45
369.969	1.44
370.337	1.39
370.705	1.41
371.073	1.39
371.441	1.49
371.809	1.35
372.177	1.45
372.544	1.57
372.912	1.33
373.28	1.45
373.647	1.43
374.015	1.63
374.383	1.78
374.75	1.54
375.118	1.43
375.485	1.55
375.853	1.47
376.22	1.56
376.587	1.45
376.955	1.55
377.322	1.71
377.689	1.5
378.056	1.38
378.423	1.38
378.79	1.56
379.157	1.48
379.524	1.57
379.891	1.5
380.258	1.62
380.625	1.52
380.992	1.44
381.359	1.6
381.726	1.67
382.092	1.54
382.459	1.52
382.826	1.44
383.192	1.44
383.559	1.54
383.925	1.72
384.292	1.5
384.658	1.87
385.025	1.48
385.391	1.76
385.757	1.67
386.123	1.52
386.49	1.51
386.856	1.59
387.222	1.57
387.588	1.63
387.954	1.74
388.32	1.64
388.686	1.61
389.052	1.54
389.418	1.64
389.784	1.52
390.15	1.63
390.515	1.44
390.881	1.73
391.247	1.55
391.613	1.64
391.978	1.5
392.344	1.69
392.709	1.62
393.075	1.6
393.44	1.65
393.806	1.59
394.171	1.45
394.536	1.65
394.902	1.67
395.267	1.46
395.632	1.52
395.997	1.46
396.362	1.46
396.727	1.71
397.092	1.57
397.457	1.53
397.822	1.58
398.187	1.57
398.552	1.52
398.917	1.56
399.282	1.53
399.646	1.66
400.011	1.56
400.376	1.52
400.74	1.44
401.105	1.45
401.47	1.66
401.834	1.6
402.199	1.64
402.563	1.54
402.927	1.46
403.292	1.77
403.656	1.52
404.02	1.62
404.384	1.7
404.749	1.46
405.113	1.5
405.477	1.54
405.841	1.52
406.205	1.4
406.569	1.42
406.933	1.46
407.296	1.48
407.66	1.48
408.024	1.45
408.388	1.54
408.752	1.45
409.115	1.56
409.479	1.62
409.842	1.38
410.206	1.45
410.569	1.4
410.933	1.46
411.296	1.27
411.66	1.36
412.023	1.32
412.386	1.39
412.749	1.36
413.113	1.32
413.476	1.33
413.839	1.38
414.202	1.37
414.565	1.29
414.928	1.37
415.291	1.33
415.654	1.31
416.017	1.27
416.38	1.31
416.742	1.26
417.105	1.3
417.468	1.29
417.83	1.37
418.193	1.29
418.556	1.27
418.918	1.17
419.281	1.26
419.643	1.29
420.005	1.29
420.368	1.4
420.73	1.3
421.092	1.33
421.455	1.36
421.817	1.15
422.179	1.24
422.541	1.25
422.903	1.36
423.265	1.35
423.627	1.26
423.989	1.26
424.351	1.22
424.713	1.25
425.075	1.22
425.436	1.28
425.798	1.23
426.16	1.27
426.521	1.23
426.883	1.28
427.245	1.26
427.606	1.21
427.967	1.15
428.329	1.23
428.69	1.26
429.052	1.19
429.413	1.22
429.774	1.23
430.135	1.19
430.497	1.25
430.858	1.19
431.219	1.24
431.58	1.21
431.941	1.15
432.302	1.16
432.663	1.18
433.024	1.2
433.384	1.18
433.745	1.17
434.106	1.18
434.467	1.16
434.827	1.15
435.188	1.16
435.548	1.21
435.909	1.13
436.269	1.18
436.63	1.12
436.99	1.13
437.351	1.12
437.711	1.15
438.071	1.12
438.431	1.13
438.792	1.12
439.152	1.09
439.512	1.09
439.872	1.09
440.232	1.14
440.592	1.14
440.952	1.08
441.312	1.06
441.671	1.07
442.031	1.07
442.391	1.06
442.751	1.05
443.11	1.02
443.47	1.01
443.83	1.02
444.189	1.03
444.549	1.02
444.908	1.01
445.267	0.99
445.627	0.99
445.986	1.01
446.345	0.96
446.705	0.99
447.064	0.98
447.423	0.96
447.782	0.98
448.141	0.97
448.5	0.93
448.859	0.93
449.218	0.94
449.577	0.96
449.936	0.94
450.295	0.93
450.653	0.93
451.012	0.9
451.371	0.91
451.729	0.9
452.088	0.92
452.447	0.89
452.805	0.89
453.163	0.89
453.522	0.9
453.88	0.86
454.239	0.86
454.597	0.84
454.955	0.83
455.313	0.83
455.671	0.82
456.029	0.83
456.388	0.8
456.746	0.81
457.104	0.8
457.461	0.79
457.819	0.77
458.177	0.76
458.535	0.76
458.893	0.76
459.25	0.74
459.608	0.74
459.966	0.73
460.323	0.71
460.681	0.7
461.038	0.7
461.396	0.69
461.753	0.68
462.111	0.68
462.468	0.67
462.825	0.64
463.182	0.66
463.54	0.65
463.897	0.66
464.254	0.62
464.611	0.62
464.968	0.61
465.325	0.61
465.682	0.59
466.039	0.6
466.395	0.59
466.752	0.58
467.109	0.57
467.466	0.57
467.822	0.57
468.179	0.55
468.535	0.55
468.892	0.53
469.248	0.52
469.605	0.52
469.961	0.51
470.318	0.53
470.674	0.52
471.03	0.5
471.386	0.5
471.743	0.48
472.099	0.47
472.455	0.47
472.811	0.46
473.167	0.46
473.523	0.44
473.879	0.45
474.235	0.44
474.59	0.43
474.946	0.42
475.302	0.42
475.657	0.42
476.013	0.41
476.369	0.4
476.724	0.41
477.08	0.39
477.435	0.39
477.791	0.39
478.146	0.38
478.501	0.38
478.857	0.38
479.212	0.37
479.567	0.36
479.922	0.35
480.277	0.35
480.632	0.34
480.987	0.35
481.342	0.33
481.697	0.33
482.052	0.34
482.407	0.32
482.762	0.32
483.116	0.32
483.471	0.31
483.826	0.3
484.18	0.3
484.535	0.29
484.89	0.29
485.244	0.29
485.598	0.29
485.953	0.28
486.307	0.28
486.661	0.28
487.016	0.27
487.37	0.27
487.724	0.27
488.078	0.26
488.432	0.26
488.786	0.25
489.14	0.26
489.494	0.25
489.848	0.25
490.202	0.25
490.556	0.24
490.91	0.25
491.263	0.24
491.617	0.24
491.971	0.24
492.324	0.23
492.678	0.23
493.031	0.23
493.385	0.22
493.738	0.22
494.091	0.22
494.445	0.22
494.798	0.22
495.151	0.22
495.504	0.21
495.857	0.22
496.21	0.22
496.564	0.21
496.916	0.22
497.269	0.21
497.622	0.21
497.975	0.21
498.328	0.21
498.681	0.21
499.033	0.21
499.386	0.2
499.739	0.2
500.091	0.2
500.444	0.2
500.796	0.2
501.149	0.2
501.501	0.2
501.854	0.2
502.206	0.19
502.558	0.19
502.91	0.2
503.263	0.19
503.615	0.18
503.967	0.18
504.319	0.19
504.671	0.18
505.023	0.18
505.375	0.18
505.726	0.18
506.078	0.18
506.43	0.17
506.782	0.17
507.133	0.18
507.485	0.19
507.837	0.19
508.188	0.18
508.54	0.18
508.891	0.18
509.243	0.18
509.594	0.17
509.945	0.17
510.296	0.18
510.648	0.17
510.999	0.17
511.35	0.17
511.701	0.17
512.052	0.17
512.403	0.17
512.754	0.17
513.105	0.16
513.456	0.17
513.807	0.16
514.157	0.17
514.508	0.17
514.859	0.16
515.209	0.16
515.56	0.16
515.91	0.16
516.261	0.16
516.611	0.16
516.962	0.16
517.312	0.17
517.662	0.16
518.013	0.17
518.363	0.17
518.713	0.17
519.063	0.16
519.413	0.16
519.763	0.16
520.113	0.16
520.463	0.17
520.813	0.17
521.163	0.17
521.512	0.17
521.862	0.16
522.212	0.16
522.562	0.17
522.911	0.17
523.261	0.16
523.61	0.16
523.96	0.16
524.309	0.17
524.658	0.17
525.008	0.16
525.357	0.17
525.706	0.17
526.056	0.16
526.405	0.17
526.754	0.16
527.103	0.17
527.452	0.17
527.801	0.17
528.15	0.17
528.499	0.17
528.847	0.17
529.196	0.18
529.545	0.17
529.893	0.17
530.242	0.16
530.591	0.17
530.939	0.17
531.288	0.17
531.636	0.17
531.985	0.17
532.333	0.17
532.681	0.16
533.029	0.17
533.378	0.16
533.726	0.17
534.074	0.17
534.422	0.16
534.77	0.17
535.118	0.17
535.466	0.16
535.814	0.17
536.162	0.17
536.509	0.17
536.857	0.17
537.205	0.17
537.552	0.17
537.9	0.18
538.248	0.17
538.595	0.18
538.943	0.17
539.29	0.17
539.637	0.16
539.985	0.16
540.332	0.16
540.679	0.16
541.026	0.16
541.373	0.17
541.721	0.16
542.068	0.17
542.415	0.16
542.762	0.16
543.108	0.16
543.455	0.16
543.802	0.16
544.149	0.16
544.496	0.17
544.842	0.16
545.189	0.15
545.535	0.16
545.882	0.17
546.228	0.16
546.575	0.16
546.921	0.16
547.267	0.16
547.614	0.16
547.96	0.16
548.306	0.16
548.652	0.16
548.998	0.17
549.344	0.16
549.69	0.16
550.036	0.16
550.382	0.17
550.728	0.16
551.074	0.17
551.42	0.17
551.765	0.17
552.111	0.17
552.457	0.17
552.802	0.17
553.148	0.16
553.493	0.17
553.839	0.17
554.184	0.17
554.529	0.16
554.875	0.18
555.22	0.17
555.565	0.18
555.91	0.17
556.255	0.18
556.6	0.18
556.945	0.17
557.29	0.17
557.635	0.17
557.98	0.17
558.325	0.17
558.67	0.17
559.014	0.16
559.359	0.17
559.704	0.17
560.048	0.15
560.393	0.16
560.737	0.15
561.082	0.17
561.426	0.15
561.77	0.16
562.115	0.16
562.459	0.16
562.803	0.16
563.147	0.16
563.491	0.16
563.835	0.16
564.179	0.17
564.523	0.17
564.867	0.16
565.211	0.17
565.555	0.17
565.899	0.17
566.242	0.17
566.586	0.16
566.93	0.16
567.273	0.17
567.617	0.17
567.96	0.17
568.304	0.17
568.647	0.17
568.99	0.17
569.334	0.17
569.677	0.17
570.02	0.18
570.363	0.18
570.706	0.17
571.049	0.17
571.392	0.17
571.735	0.16
572.078	0.17
572.421	0.18
572.764	0.17
573.106	0.17
573.449	0.17
573.792	0.17
574.134	0.17
574.477	0.18
574.819	0.17
575.162	0.17
575.504	0.17
575.847	0.17
576.189	0.17
576.531	0.17
576.873	0.16
577.215	0.17
577.558	0.18
577.9	0.17
578.242	0.17
578.584	0.17
578.926	0.16
579.267	0.17
579.609	0.16
579.951	0.16
580.293	0.16
580.634	0.17
580.976	0.17
581.318	0.16
581.659	0.16
582.001	0.17
582.342	0.17
582.683	0.17
583.025	0.16
583.366	0.17
583.707	0.17
584.049	0.17
584.39	0.17
584.731	0.16
585.072	0.16
585.413	0.18
585.754	0.16
586.095	0.16
586.435	0.16
586.776	0.16
587.117	0.16
587.458	0.16
587.798	0.16
588.139	0.16
588.48	0.16
588.82	0.16
589.161	0.15
589.501	0.16
589.841	0.16
590.182	0.15
590.522	0.15
590.862	0.16
591.202	0.16
591.542	0.16
591.882	0.16
592.222	0.16
592.562	0.16
592.902	0.16
593.242	0.16
593.582	0.17
593.922	0.16
594.261	0.15
594.601	0.16
594.941	0.16
595.28	0.16
595.62	0.16
595.959	0.16
596.299	0.15
596.638	0.16
596.977	0.15
597.317	0.16
597.656	0.16
597.995	0.15
598.334	0.16
598.673	0.16
599.012	0.16
599.351	0.17
599.69	0.15
600.029	0.16
600.368	0.16
600.707	0.16
601.046	0.16
601.384	0.17
601.723	0.17
602.061	0.15
602.4	0.16
602.738	0.16
603.077	0.16
603.415	0.16
603.754	0.16
604.092	0.16
604.43	0.16
604.768	0.16
605.107	0.16
605.445	0.16
605.783	0.15
606.121	0.16
606.459	0.16
606.796	0.16
607.134	0.16
607.472	0.16
607.81	0.16
608.148	0.16
608.485	0.16
608.823	0.17
609.16	0.16
609.498	0.17
609.835	0.17
610.173	0.16
610.51	0.17
610.847	0.17
611.185	0.16
611.522	0.17
611.859	0.17
612.196	0.17
612.533	0.18
612.87	0.17
613.207	0.17
613.544	0.18
613.881	0.18
614.217	0.17
614.554	0.17
614.891	0.17
615.228	0.17
615.564	0.17
615.901	0.17
616.237	0.17
616.574	0.16
616.91	0.17
617.246	0.17
617.583	0.16
617.919	0.17
618.255	0.17
618.591	0.16
618.927	0.17
619.263	0.17
619.599	0.17
619.935	0.16
620.271	0.17
620.607	0.17
620.943	0.16
621.279	0.16
621.614	0.17
621.95	0.16
622.286	0.16
622.621	0.16
622.957	0.16
623.292	0.16
623.627	0.15
623.963	0.15
624.298	0.16
624.633	0.16
624.968	0.15
625.304	0.15
625.639	0.16
625.974	0.15
626.309	0.15
626.644	0.15
626.979	0.16
627.313	0.15
627.648	0.16
627.983	0.16
628.318	0.15
628.652	0.15
628.987	0.16
629.321	0.16
629.656	0.15
629.99	0.15
630.325	0.15
630.659	0.16
630.993	0.15
631.327	0.15
631.662	0.14
631.996	0.14
632.33	0.14
632.664	0.15
632.998	0.14
633.332	0.14
633.666	0.15
633.999	0.14
634.333	0.14
634.667	0.14
635.001	0.13
635.334	0.14
635.668	0.13
636.001	0.14
636.335	0.14
636.668	0.14
637.001	0.14
637.335	0.14
637.668	0.14
638.001	0.14
638.334	0.14
638.668	0.14
639.001	0.14
639.334	0.13
639.667	0.14
639.999	0.14
640.332	0.14
640.665	0.14
640.998	0.14
641.331	0.15
641.663	0.14
641.996	0.14
642.328	0.14
642.661	0.14
642.993	0.14
643.326	0.14
643.658	0.14
643.99	0.13
644.323	0.13
644.655	0.14
644.987	0.14
645.319	0.14
645.651	0.14
645.983	0.14
646.315	0.13
646.647	0.14
646.979	0.15
647.31	0.15
647.642	0.14
647.974	0.15
648.305	0.15
648.637	0.15
648.968	0.14
649.3	0.15
649.631	0.15
649.963	0.14
650.294	0.15
650.625	0.13
650.957	0.14
651.288	0.14
651.619	0.15
651.95	0.15
652.281	0.14
652.612	0.13
652.943	0.14
653.274	0.14
653.604	0.14
653.935	0.13
654.266	0.14
654.596	0.13
654.927	0.13
655.258	0.13
655.588	0.15
655.918	0.14
656.249	0.12
656.579	0.13
656.909	0.13
657.24	0.13
657.57	0.14
657.9	0.13
658.23	0.14
658.56	0.14
658.89	0.14
659.22	0.13
659.55	0.14
659.88	0.14
660.209	0.14
660.539	0.15
660.869	0.14
661.198	0.14
661.528	0.14
661.857	0.13
662.187	0.14
662.516	0.14
662.846	0.13
663.175	0.13
663.504	0.13
663.833	0.13
664.163	0.13
664.492	0.13
664.821	0.13
665.15	0.13
665.479	0.13
665.807	0.12
666.136	0.13
666.465	0.12
666.794	0.13
667.122	0.13
667.451	0.13
667.78	0.12
668.108	0.12
668.437	0.13
668.765	0.13
669.093	0.12
669.422	0.13
669.75	0.13
670.078	0.12
670.406	0.12
670.734	0.12
671.062	0.13
671.39	0.12
671.718	0.12
672.046	0.13
672.374	0.12
672.702	0.12
673.029	0.12
673.357	0.12
673.685	0.13
674.012	0.12
674.34	0.12
674.667	0.13
674.995	0.12
675.322	0.13
675.649	0.12
675.977	0.12
676.304	0.12
676.631	0.12
676.958	0.12
677.285	0.11
677.612	0.11
677.939	0.11
678.266	0.11
678.593	0.11
678.92	0.11
679.246	0.11
679.573	0.11
679.9	0.11
680.226	0.1
680.553	0.1
680.879	0.11
681.206	0.1
681.532	0.1
681.858	0.1
682.184	0.1
682.511	0.1
682.837	0.1
683.163	0.1
683.489	0.11
683.815	0.1
684.141	0.1
684.467	0.11
684.793	0.1
685.118	0.1
685.444	0.11
685.77	0.1
686.095	0.11
686.421	0.11
686.746	0.11
687.072	0.11
687.397	0.1
687.723	0.11
688.048	0.11
688.373	0.11
688.698	0.11
689.023	0.1
689.349	0.1
689.674	0.1
689.999	0.1
690.323	0.09
690.648	0.09
690.973	0.08
691.298	0.09
691.623	0.09
691.947	0.1
692.272	0.09
692.596	0.09
692.921	0.1
693.245	0.09
693.57	0.1
693.894	0.09
694.218	0.1
694.543	0.09
694.867	0.09
695.191	0.09
695.515	0.09
695.839	0.09
696.163	0.09
696.487	0.09
696.811	0.09
697.135	0.09
697.458	0.1
697.782	0.09
698.106	0.09
698.429	0.1
698.753	0.09
699.076	0.09
699.4	0.09
699.723	0.09
700.046	0.09
700.37	0.1
700.693	0.1
701.016	0.09
701.339	0.09
701.662	0.1
701.985	0.1
702.308	0.09
702.631	0.09
702.954	0.09
703.277	0.09
703.599	0.09
703.922	0.08
704.245	0.09
704.567	0.09
704.89	0.08
705.212	0.09
705.535	0.08
705.857	0.08
706.179	0.07
706.502	0.08
706.824	0.07
707.146	0.07
707.468	0.08
707.79	0.08
708.112	0.08
708.434	0.07
708.756	0.08
709.078	0.08
709.399	0.07
709.721	0.08
710.043	0.08
710.364	0.08
710.686	0.08
711.007	0.08
711.329	0.08
711.65	0.08
711.972	0.07
712.293	0.08
712.614	0.08
712.935	0.08
713.256	0.08
713.577	0.08
713.898	0.08
714.219	0.07
714.54	0.08
714.861	0.07
715.182	0.08
715.503	0.08
715.823	0.08
716.144	0.08
716.464	0.07
716.785	0.07
717.105	0.08
717.426	0.08
717.746	0.07
718.066	0.07
718.387	0.08
718.707	0.07
719.027	0.07
719.347	0.07
719.667	0.07
719.987	0.06
720.307	0.07
720.627	0.06
720.947	0.06
721.266	0.07
721.586	0.06
721.906	0.07
722.225	0.06
722.545	0.06
722.864	0.06
723.184	0.07
723.503	0.07
