Data from 12-12-AQDScycling_Absorbance__886__00886.txt Node

Date: Tue Dec 12 14:38:14 EST 2023
User: kyuminlee
Spectrometer: FLMS00943
Trigger mode: 0
Integration Time (sec): 1.000000E-1
Scans to average: 1
Electric dark correction enabled: true
Nonlinearity correction enabled: false
Boxcar width: 0
XAxis mode: Wavelengths
Number of Pixels in Spectrum: 2048
>>>>>Begin Spectral Data<<<<<
179.651	-0
180.037	-0
180.424	-0
180.81	-0
181.197	0.19
181.583	0.07
181.97	-0.22
182.356	-0
182.743	-0
183.129	-0.06
183.515	0.97
183.901	-0
184.288	0.08
184.674	-0
185.06	-1.05
185.446	-0
185.832	-0
186.218	0.24
186.604	-0
186.99	-0
187.376	-0
187.762	0.11
188.148	0.27
188.534	-0.31
188.92	0.04
189.305	-0.01
189.691	0.32
190.077	0.02
190.463	0.1
190.848	-0.02
191.234	-0.06
191.619	0.01
192.005	0.1
192.391	0.13
192.776	0.05
193.161	0.06
193.547	0.21
193.932	0.02
194.318	0.06
194.703	0.17
195.088	0.05
195.473	0.25
195.859	0.22
196.244	0.19
196.629	0.03
197.014	0.16
197.399	0.24
197.784	0.11
198.169	0.06
198.554	0.14
198.939	0.09
199.324	0.14
199.709	0.01
200.094	-0.04
200.478	0.15
200.863	0.26
201.248	0.21
201.633	0.22
202.017	0.22
202.402	0.2
202.787	0.16
203.171	0.25
203.556	0.26
203.94	0.13
204.325	0.22
204.709	0.3
205.093	0.01
205.478	0.08
205.862	0.16
206.246	0.09
206.631	0.25
207.015	0.04
207.399	0.19
207.783	0.19
208.167	0.08
208.551	0.23
208.935	0.24
209.319	0.03
209.703	0.11
210.087	0.13
210.471	-0.04
210.855	0.17
211.239	0.1
211.623	0.25
212.007	0.34
212.39	0.2
212.774	0.2
213.158	0.08
213.541	0.1
213.925	0.2
214.309	0.31
214.692	0.31
215.076	0.27
215.459	0.08
215.842	0.1
216.226	0.19
216.609	0.38
216.993	0.21
217.376	0.48
217.759	0.23
218.142	0.4
218.525	0.41
218.909	0.42
219.292	0.42
219.675	0.5
220.058	0.45
220.441	0.47
220.824	0.5
221.207	0.56
221.59	0.5
221.973	0.56
222.355	0.52
222.738	0.91
223.121	0.58
223.504	0.5
223.886	0.61
224.269	0.65
224.652	0.86
225.034	0.63
225.417	0.66
225.799	0.88
226.182	1.01
226.564	0.96
226.947	0.6
227.329	0.82
227.711	1.14
228.094	1
228.476	0.89
228.858	0.8
229.24	0.85
229.623	0.96
230.005	0.81
230.387	0.85
230.769	0.81
231.151	1.01
231.533	0.85
231.915	0.87
232.297	1.03
232.679	0.94
233.061	0.97
233.442	1.02
233.824	0.98
234.206	1.01
234.588	1.12
234.969	0.96
235.351	1.1
235.733	1.06
236.114	1.24
236.496	1.05
236.877	1.06
237.259	1.12
237.64	1.04
238.022	1.01
238.403	1.06
238.784	1.01
239.165	1.05
239.547	0.99
239.928	1.23
240.309	1.05
240.69	1.04
241.071	1.22
241.452	1.28
241.834	1.05
242.215	1.24
242.595	1.15
242.976	1.14
243.357	1.11
243.738	1.02
244.119	1.24
244.5	1.1
244.881	1.29
245.261	1.24
245.642	1.26
246.023	1.21
246.403	1.17
246.784	1.19
247.164	1.36
247.545	1.18
247.925	1.42
248.306	1.2
248.686	1.55
249.067	1.31
249.447	1.33
249.827	1.52
250.207	1.39
250.588	1.24
250.968	1.43
251.348	1.31
251.728	1.36
252.108	1.36
252.488	1.38
252.868	1.38
253.248	1.44
253.628	1.46
254.008	1.48
254.388	1.36
254.768	1.38
255.147	1.45
255.527	1.44
255.907	1.35
256.287	1.31
256.666	1.47
257.046	1.45
257.425	1.65
257.805	1.29
258.184	1.28
258.564	1.34
258.943	1.31
259.323	1.48
259.702	1.53
260.081	1.48
260.461	1.46
260.84	1.45
261.219	1.8
261.598	1.47
261.977	1.5
262.356	1.48
262.736	1.5
263.115	1.61
263.494	1.51
263.873	1.5
264.251	1.43
264.63	1.52
265.009	1.51
265.388	1.35
265.767	1.41
266.145	1.46
266.524	1.48
266.903	1.45
267.281	1.33
267.66	1.73
268.039	1.44
268.417	1.44
268.796	1.46
269.174	1.53
269.552	1.4
269.931	1.5
270.309	1.37
270.687	1.56
271.066	1.54
271.444	1.43
271.822	1.45
272.2	1.47
272.578	1.32
272.956	1.53
273.334	1.32
273.712	1.5
274.09	1.48
274.468	1.5
274.846	1.28
275.224	1.29
275.602	1.59
275.98	1.56
276.357	1.36
276.735	1.4
277.113	1.43
277.49	1.33
277.868	1.4
278.246	1.37
278.623	1.31
279.001	1.38
279.378	1.42
279.756	1.49
280.133	1.58
280.51	1.31
280.888	1.4
281.265	1.29
281.642	1.41
282.019	1.49
282.396	1.55
282.773	1.77
283.151	1.54
283.528	1.61
283.905	1.39
284.282	1.46
284.659	1.56
285.035	1.37
285.412	1.37
285.789	1.66
286.166	1.41
286.543	1.45
286.919	1.5
287.296	1.45
287.673	1.53
288.049	1.4
288.426	1.43
288.802	1.58
289.179	1.68
289.555	1.62
289.932	1.62
290.308	1.41
290.684	1.37
291.061	1.39
291.437	1.44
291.813	1.31
292.189	1.32
292.565	1.29
292.942	1.22
293.318	1.36
293.694	1.54
294.07	1.33
294.446	1.37
294.822	1.56
295.197	1.37
295.573	1.38
295.949	1.42
296.325	1.45
296.701	1.45
297.076	1.53
297.452	1.47
297.828	1.5
298.203	1.54
298.579	1.39
298.954	1.46
299.33	1.41
299.705	1.35
300.081	1.44
300.456	1.41
300.831	1.35
301.206	1.51
301.582	1.5
301.957	1.33
302.332	1.47
302.707	1.42
303.082	1.43
303.457	1.43
303.832	1.4
304.207	1.29
304.582	1.33
304.957	1.34
305.332	1.32
305.707	1.29
306.082	1.26
306.456	1.41
306.831	1.3
307.206	1.31
307.58	1.31
307.955	1.26
308.33	1.29
308.704	1.25
309.079	1.28
309.453	1.26
309.828	1.25
310.202	1.17
310.576	1.21
310.951	1.3
311.325	1.29
311.699	1.17
312.073	1.16
312.447	1.22
312.821	1.16
313.196	1.21
313.57	1.15
313.944	1.17
314.317	1.19
314.691	1.3
315.065	1.2
315.439	1.21
315.813	1.21
316.187	1.16
316.56	1.24
316.934	1.21
317.308	1.24
317.681	1.18
318.055	1.22
318.428	1.18
318.802	1.38
319.175	1.13
319.549	1.25
319.922	1.16
320.295	1.25
320.669	1.25
321.042	1.23
321.415	1.21
321.788	1.19
322.162	1.22
322.535	1.28
322.908	1.28
323.281	1.21
323.654	1.26
324.027	1.18
324.4	1.26
324.773	1.28
325.145	1.25
325.518	1.2
325.891	1.21
326.264	1.36
326.636	1.21
327.009	1.25
327.382	1.33
327.754	1.45
328.127	1.19
328.499	1.22
328.872	1.23
329.244	1.3
329.616	1.23
329.989	1.21
330.361	1.28
330.733	1.26
331.106	1.25
331.478	1.33
331.85	1.26
332.222	1.2
332.594	1.39
332.966	1.21
333.338	1.32
333.71	1.41
334.082	1.4
334.454	1.31
334.826	1.29
335.197	1.37
335.569	1.28
335.941	1.25
336.312	1.25
336.684	1.29
337.056	1.25
337.427	1.32
337.799	1.29
338.17	1.35
338.542	1.29
338.913	1.28
339.284	1.29
339.656	1.26
340.027	1.36
340.398	1.36
340.769	1.32
341.141	1.4
341.512	1.32
341.883	1.35
342.254	1.33
342.625	1.37
342.996	1.37
343.367	1.37
343.738	1.32
344.108	1.21
344.479	1.44
344.85	1.27
345.221	1.41
345.591	1.2
345.962	1.23
346.333	1.36
346.703	1.18
347.074	1.3
347.444	1.22
347.815	1.29
348.185	1.28
348.556	1.25
348.926	1.23
349.296	1.39
349.666	1.29
350.037	1.22
350.407	1.25
350.777	1.26
351.147	1.41
351.517	1.33
351.887	1.33
352.257	1.38
352.627	1.33
352.997	1.23
353.367	1.33
353.737	1.43
354.106	1.41
354.476	1.36
354.846	1.34
355.216	1.46
355.585	1.36
355.955	1.46
356.324	1.36
356.694	1.41
357.063	1.45
357.433	1.32
357.802	1.4
358.171	1.48
358.541	1.38
358.91	1.47
359.279	1.45
359.648	1.38
360.017	1.41
360.387	1.52
360.756	1.37
361.125	1.48
361.494	1.48
361.863	1.39
362.231	1.51
362.6	1.4
362.969	1.53
363.338	1.39
363.707	1.72
364.075	1.55
364.444	1.4
364.813	1.44
365.181	1.45
365.55	1.5
365.918	1.56
366.287	1.59
366.655	1.43
367.024	1.58
367.392	1.55
367.76	1.45
368.128	1.54
368.497	1.44
368.865	1.47
369.233	1.53
369.601	1.56
369.969	1.62
370.337	1.6
370.705	1.48
371.073	1.55
371.441	1.53
371.809	1.37
372.177	1.59
372.544	1.5
372.912	1.6
373.28	1.49
373.647	1.49
374.015	1.65
374.383	1.63
374.75	1.7
375.118	1.58
375.485	1.57
375.853	1.48
376.22	1.53
376.587	1.45
376.955	1.54
377.322	1.77
377.689	1.49
378.056	1.68
378.423	1.48
378.79	1.55
379.157	1.56
379.524	1.61
379.891	1.57
380.258	1.61
380.625	1.57
380.992	1.45
381.359	1.68
381.726	1.64
382.092	1.43
382.459	1.59
382.826	1.43
383.192	1.6
383.559	1.54
383.925	1.55
384.292	1.46
384.658	1.52
385.025	1.56
385.391	1.66
385.757	1.69
386.123	1.6
386.49	1.48
386.856	1.63
387.222	1.53
387.588	1.47
387.954	1.76
388.32	1.62
388.686	1.61
389.052	1.51
389.418	1.64
389.784	1.56
390.15	1.58
390.515	1.36
390.881	1.83
391.247	1.45
391.613	1.68
391.978	1.48
392.344	1.88
392.709	1.57
393.075	1.63
393.44	1.54
393.806	1.59
394.171	1.51
394.536	1.47
394.902	1.48
395.267	1.49
395.632	1.43
395.997	1.43
396.362	1.48
396.727	1.56
397.092	1.55
397.457	1.54
397.822	1.66
398.187	1.49
398.552	1.56
398.917	1.59
399.282	1.45
399.646	1.47
400.011	1.78
400.376	1.41
400.74	1.54
401.105	1.42
401.47	1.57
401.834	1.55
402.199	1.55
402.563	1.63
402.927	1.53
403.292	1.61
403.656	1.55
404.02	1.53
404.384	1.61
404.749	1.56
405.113	1.64
405.477	1.54
405.841	1.6
406.205	1.54
406.569	1.56
406.933	1.47
407.296	1.55
407.66	1.66
408.024	1.55
408.388	1.72
408.752	1.55
409.115	1.61
409.479	1.45
409.842	1.71
410.206	1.4
410.569	1.49
410.933	1.48
411.296	1.37
411.66	1.53
412.023	1.41
412.386	1.49
412.749	1.45
413.113	1.67
413.476	1.49
413.839	1.41
414.202	1.58
414.565	1.4
414.928	1.34
415.291	1.32
415.654	1.48
416.017	1.44
416.38	1.4
416.742	1.35
417.105	1.43
417.468	1.42
417.83	1.49
418.193	1.5
418.556	1.39
418.918	1.49
419.281	1.38
419.643	1.34
420.005	1.41
420.368	1.43
420.73	1.42
421.092	1.48
421.455	1.55
421.817	1.43
422.179	1.42
422.541	1.51
422.903	1.57
423.265	1.46
423.627	1.56
423.989	1.41
424.351	1.36
424.713	1.43
425.075	1.51
425.436	1.42
425.798	1.39
426.16	1.4
426.521	1.48
426.883	1.49
427.245	1.46
427.606	1.35
427.967	1.33
428.329	1.41
428.69	1.48
429.052	1.37
429.413	1.5
429.774	1.35
430.135	1.46
430.497	1.45
430.858	1.44
431.219	1.4
431.58	1.38
431.941	1.36
432.302	1.33
432.663	1.39
433.024	1.4
433.384	1.42
433.745	1.33
434.106	1.5
434.467	1.41
434.827	1.31
435.188	1.36
435.548	1.41
435.909	1.38
436.269	1.42
436.63	1.37
436.99	1.36
437.351	1.25
437.711	1.37
438.071	1.29
438.431	1.29
438.792	1.29
439.152	1.27
439.512	1.28
439.872	1.26
440.232	1.29
440.592	1.29
440.952	1.26
441.312	1.28
441.671	1.26
442.031	1.27
442.391	1.21
442.751	1.31
443.11	1.24
443.47	1.22
443.83	1.2
444.189	1.22
444.549	1.19
444.908	1.19
445.267	1.19
445.627	1.15
445.986	1.17
446.345	1.15
446.705	1.18
447.064	1.14
447.423	1.14
447.782	1.15
448.141	1.13
448.5	1.09
448.859	1.09
449.218	1.09
449.577	1.13
449.936	1.1
450.295	1.12
450.653	1.07
451.012	1.1
451.371	1.1
451.729	1.1
452.088	1.09
452.447	1.07
452.805	1.07
453.163	1.07
453.522	1.07
453.88	1.02
454.239	1.01
454.597	1
454.955	1
455.313	0.99
455.671	0.98
456.029	0.98
456.388	0.94
456.746	0.94
457.104	0.95
457.461	0.94
457.819	0.92
458.177	0.91
458.535	0.91
458.893	0.89
459.25	0.9
459.608	0.88
459.966	0.85
460.323	0.85
460.681	0.83
461.038	0.83
461.396	0.82
461.753	0.81
462.111	0.79
462.468	0.77
462.825	0.77
463.182	0.77
463.54	0.75
463.897	0.76
464.254	0.74
464.611	0.73
464.968	0.72
465.325	0.72
465.682	0.7
466.039	0.7
466.395	0.67
466.752	0.67
467.109	0.67
467.466	0.66
467.822	0.64
468.179	0.64
468.535	0.63
468.892	0.63
469.248	0.61
469.605	0.6
469.961	0.6
470.318	0.6
470.674	0.57
471.03	0.56
471.386	0.56
471.743	0.55
472.099	0.53
472.455	0.53
472.811	0.53
473.167	0.53
473.523	0.51
473.879	0.51
474.235	0.51
474.59	0.49
474.946	0.49
475.302	0.47
475.657	0.47
476.013	0.47
476.369	0.45
476.724	0.46
477.08	0.46
477.435	0.43
477.791	0.43
478.146	0.43
478.501	0.42
478.857	0.41
479.212	0.4
479.567	0.4
479.922	0.39
480.277	0.38
480.632	0.37
480.987	0.38
481.342	0.36
481.697	0.36
482.052	0.36
482.407	0.35
482.762	0.34
483.116	0.33
483.471	0.33
483.826	0.32
484.18	0.32
484.535	0.31
484.89	0.31
485.244	0.31
485.598	0.31
485.953	0.3
486.307	0.29
486.661	0.3
487.016	0.29
487.37	0.28
487.724	0.28
488.078	0.28
488.432	0.28
488.786	0.27
489.14	0.26
489.494	0.26
489.848	0.25
490.202	0.25
490.556	0.25
490.91	0.25
491.263	0.24
491.617	0.24
491.971	0.24
492.324	0.23
492.678	0.24
493.031	0.23
493.385	0.23
493.738	0.23
494.091	0.22
494.445	0.22
494.798	0.22
495.151	0.22
495.504	0.22
495.857	0.21
496.21	0.21
496.564	0.22
496.916	0.21
497.269	0.2
497.622	0.21
497.975	0.2
498.328	0.2
498.681	0.2
499.033	0.19
499.386	0.19
499.739	0.19
500.091	0.18
500.444	0.19
500.796	0.18
501.149	0.18
501.501	0.18
501.854	0.18
502.206	0.18
502.558	0.17
502.91	0.18
503.263	0.18
503.615	0.17
503.967	0.17
504.319	0.17
504.671	0.17
505.023	0.17
505.375	0.17
505.726	0.17
506.078	0.17
506.43	0.16
506.782	0.16
507.133	0.17
507.485	0.17
507.837	0.17
508.188	0.17
508.54	0.17
508.891	0.18
509.243	0.17
509.594	0.17
509.945	0.17
510.296	0.15
510.648	0.16
510.999	0.16
511.35	0.17
511.701	0.16
512.052	0.16
512.403	0.16
512.754	0.17
513.105	0.16
513.456	0.16
513.807	0.16
514.157	0.16
514.508	0.16
514.859	0.15
515.209	0.16
515.56	0.17
515.91	0.15
516.261	0.16
516.611	0.15
516.962	0.16
517.312	0.15
517.662	0.16
518.013	0.16
518.363	0.16
518.713	0.16
519.063	0.16
519.413	0.16
519.763	0.15
520.113	0.15
520.463	0.16
520.813	0.17
521.163	0.16
521.512	0.16
521.862	0.16
522.212	0.16
522.562	0.16
522.911	0.16
523.261	0.16
523.61	0.15
523.96	0.16
524.309	0.16
524.658	0.17
525.008	0.16
525.357	0.16
525.706	0.16
526.056	0.16
526.405	0.16
526.754	0.15
527.103	0.15
527.452	0.16
527.801	0.16
528.15	0.16
528.499	0.17
528.847	0.16
529.196	0.16
529.545	0.17
529.893	0.17
530.242	0.17
530.591	0.17
530.939	0.18
531.288	0.17
531.636	0.17
531.985	0.17
532.333	0.16
532.681	0.17
533.029	0.17
533.378	0.16
533.726	0.17
534.074	0.17
534.422	0.16
534.77	0.17
535.118	0.16
535.466	0.17
535.814	0.16
536.162	0.17
536.509	0.17
536.857	0.16
537.205	0.18
537.552	0.17
537.9	0.16
538.248	0.16
538.595	0.16
538.943	0.17
539.29	0.17
539.637	0.17
539.985	0.16
540.332	0.16
540.679	0.16
541.026	0.16
541.373	0.17
541.721	0.16
542.068	0.16
542.415	0.17
542.762	0.16
543.108	0.16
543.455	0.16
543.802	0.17
544.149	0.16
544.496	0.17
544.842	0.16
545.189	0.15
545.535	0.16
545.882	0.15
546.228	0.15
546.575	0.15
546.921	0.16
547.267	0.16
547.614	0.16
547.96	0.15
548.306	0.15
548.652	0.15
548.998	0.16
549.344	0.15
549.69	0.17
550.036	0.16
550.382	0.16
550.728	0.16
551.074	0.16
551.42	0.17
551.765	0.16
552.111	0.17
552.457	0.18
552.802	0.17
553.148	0.17
553.493	0.15
553.839	0.17
554.184	0.18
554.529	0.16
554.875	0.16
555.22	0.17
555.565	0.17
555.91	0.17
556.255	0.17
556.6	0.18
556.945	0.15
557.29	0.17
557.635	0.17
557.98	0.17
558.325	0.17
558.67	0.16
559.014	0.17
559.359	0.17
559.704	0.16
560.048	0.16
560.393	0.16
560.737	0.15
561.082	0.16
561.426	0.15
561.77	0.17
562.115	0.16
562.459	0.16
562.803	0.17
563.147	0.17
563.491	0.16
563.835	0.16
564.179	0.16
564.523	0.17
564.867	0.15
565.211	0.16
565.555	0.17
565.899	0.17
566.242	0.17
566.586	0.16
566.93	0.17
567.273	0.17
567.617	0.17
567.96	0.17
568.304	0.17
568.647	0.17
568.99	0.17
569.334	0.18
569.677	0.16
570.02	0.18
570.363	0.17
570.706	0.17
571.049	0.17
571.392	0.18
571.735	0.16
572.078	0.17
572.421	0.18
572.764	0.17
573.106	0.17
573.449	0.17
573.792	0.17
574.134	0.16
574.477	0.17
574.819	0.16
575.162	0.17
575.504	0.16
575.847	0.17
576.189	0.17
576.531	0.16
576.873	0.16
577.215	0.17
577.558	0.16
577.9	0.16
578.242	0.17
578.584	0.17
578.926	0.17
579.267	0.17
579.609	0.16
579.951	0.17
580.293	0.16
580.634	0.17
580.976	0.17
581.318	0.16
581.659	0.16
582.001	0.17
582.342	0.16
582.683	0.17
583.025	0.16
583.366	0.16
583.707	0.17
584.049	0.17
584.39	0.16
584.731	0.17
585.072	0.16
585.413	0.17
585.754	0.17
586.095	0.17
586.435	0.17
586.776	0.17
587.117	0.17
587.458	0.16
587.798	0.17
588.139	0.17
588.48	0.16
588.82	0.16
589.161	0.16
589.501	0.16
589.841	0.16
590.182	0.16
590.522	0.16
590.862	0.16
591.202	0.16
591.542	0.16
591.882	0.16
592.222	0.17
592.562	0.16
592.902	0.16
593.242	0.16
593.582	0.16
593.922	0.17
594.261	0.16
594.601	0.16
594.941	0.16
595.28	0.16
595.62	0.16
595.959	0.15
596.299	0.15
596.638	0.16
596.977	0.16
597.317	0.16
597.656	0.16
597.995	0.16
598.334	0.17
598.673	0.17
599.012	0.16
599.351	0.17
599.69	0.16
600.029	0.17
600.368	0.17
600.707	0.17
601.046	0.16
601.384	0.17
601.723	0.17
602.061	0.17
602.4	0.16
602.738	0.17
603.077	0.16
603.415	0.16
603.754	0.16
604.092	0.16
604.43	0.16
604.768	0.16
605.107	0.17
605.445	0.16
605.783	0.16
606.121	0.17
606.459	0.16
606.796	0.16
607.134	0.16
607.472	0.16
607.81	0.16
608.148	0.15
608.485	0.16
608.823	0.16
609.16	0.16
609.498	0.15
609.835	0.16
610.173	0.15
610.51	0.16
610.847	0.16
611.185	0.17
611.522	0.17
611.859	0.17
612.196	0.16
612.533	0.16
612.87	0.17
613.207	0.16
613.544	0.16
613.881	0.17
614.217	0.17
614.554	0.17
614.891	0.17
615.228	0.17
615.564	0.17
615.901	0.16
616.237	0.16
616.574	0.17
616.91	0.17
617.246	0.17
617.583	0.17
617.919	0.17
618.255	0.17
618.591	0.16
618.927	0.17
619.263	0.16
619.599	0.17
619.935	0.17
620.271	0.17
620.607	0.17
620.943	0.17
621.279	0.17
621.614	0.16
621.95	0.16
622.286	0.16
622.621	0.16
622.957	0.16
623.292	0.16
623.627	0.16
623.963	0.15
624.298	0.16
624.633	0.15
624.968	0.16
625.304	0.16
625.639	0.16
625.974	0.16
626.309	0.16
626.644	0.16
626.979	0.16
627.313	0.16
627.648	0.16
627.983	0.16
628.318	0.15
628.652	0.14
628.987	0.15
629.321	0.16
629.656	0.15
629.99	0.15
630.325	0.15
630.659	0.15
630.993	0.14
631.327	0.14
631.662	0.14
631.996	0.14
632.33	0.14
632.664	0.15
632.998	0.14
633.332	0.14
633.666	0.14
633.999	0.14
634.333	0.14
634.667	0.13
635.001	0.13
635.334	0.14
635.668	0.14
636.001	0.13
636.335	0.13
636.668	0.14
637.001	0.13
637.335	0.13
637.668	0.14
638.001	0.13
638.334	0.14
638.668	0.13
639.001	0.14
639.334	0.13
639.667	0.14
639.999	0.13
640.332	0.14
640.665	0.13
640.998	0.13
641.331	0.15
641.663	0.13
641.996	0.13
642.328	0.14
642.661	0.14
642.993	0.14
643.326	0.14
643.658	0.13
643.99	0.13
644.323	0.14
644.655	0.14
644.987	0.14
645.319	0.14
645.651	0.14
645.983	0.15
646.315	0.14
646.647	0.14
646.979	0.15
647.31	0.15
647.642	0.15
647.974	0.14
648.305	0.14
648.637	0.14
648.968	0.14
649.3	0.14
649.631	0.14
649.963	0.13
650.294	0.14
650.625	0.13
650.957	0.14
651.288	0.14
651.619	0.14
651.95	0.14
652.281	0.14
652.612	0.15
652.943	0.14
653.274	0.14
653.604	0.13
653.935	0.14
654.266	0.14
654.596	0.13
654.927	0.13
655.258	0.14
655.588	0.14
655.918	0.14
656.249	0.13
656.579	0.13
656.909	0.14
657.24	0.13
657.57	0.14
657.9	0.14
658.23	0.13
658.56	0.13
658.89	0.14
659.22	0.13
659.55	0.13
659.88	0.13
660.209	0.14
660.539	0.14
660.869	0.13
661.198	0.14
661.528	0.13
661.857	0.13
662.187	0.13
662.516	0.13
662.846	0.13
663.175	0.13
663.504	0.13
663.833	0.13
664.163	0.13
664.492	0.12
664.821	0.13
665.15	0.12
665.479	0.13
665.807	0.12
666.136	0.13
666.465	0.13
666.794	0.13
667.122	0.13
667.451	0.12
667.78	0.13
668.108	0.13
668.437	0.13
668.765	0.13
669.093	0.14
669.422	0.13
669.75	0.14
670.078	0.13
670.406	0.13
670.734	0.13
671.062	0.13
671.39	0.13
671.718	0.13
672.046	0.13
672.374	0.13
672.702	0.13
673.029	0.13
673.357	0.13
673.685	0.14
674.012	0.13
674.34	0.13
674.667	0.13
674.995	0.13
675.322	0.12
675.649	0.12
675.977	0.13
676.304	0.12
676.631	0.13
676.958	0.12
677.285	0.12
677.612	0.12
677.939	0.12
678.266	0.12
678.593	0.12
678.92	0.12
679.246	0.12
679.573	0.12
679.9	0.12
680.226	0.12
680.553	0.12
680.879	0.12
681.206	0.12
681.532	0.12
681.858	0.12
682.184	0.12
682.511	0.12
682.837	0.12
683.163	0.12
683.489	0.13
683.815	0.12
684.141	0.12
684.467	0.12
684.793	0.12
685.118	0.12
685.444	0.12
685.77	0.12
686.095	0.12
686.421	0.11
686.746	0.12
687.072	0.11
687.397	0.11
687.723	0.12
688.048	0.12
688.373	0.12
688.698	0.12
689.023	0.11
689.349	0.11
689.674	0.11
689.999	0.11
690.323	0.1
690.648	0.1
690.973	0.1
691.298	0.1
691.623	0.1
691.947	0.1
692.272	0.1
692.596	0.11
692.921	0.11
693.245	0.11
693.57	0.11
693.894	0.11
694.218	0.11
694.543	0.11
694.867	0.11
695.191	0.11
695.515	0.11
695.839	0.11
696.163	0.11
696.487	0.11
696.811	0.11
697.135	0.11
697.458	0.11
697.782	0.11
698.106	0.11
698.429	0.11
698.753	0.11
699.076	0.1
699.4	0.1
699.723	0.1
700.046	0.11
700.37	0.11
700.693	0.11
701.016	0.11
701.339	0.11
701.662	0.11
701.985	0.11
702.308	0.1
702.631	0.11
702.954	0.11
703.277	0.1
703.599	0.11
703.922	0.1
704.245	0.09
704.567	0.09
704.89	0.1
705.212	0.1
705.535	0.09
705.857	0.09
706.179	0.09
706.502	0.1
706.824	0.08
707.146	0.09
707.468	0.09
707.79	0.1
708.112	0.1
708.434	0.09
708.756	0.09
709.078	0.1
709.399	0.09
709.721	0.09
710.043	0.1
710.364	0.09
710.686	0.09
711.007	0.09
711.329	0.1
711.65	0.1
711.972	0.1
712.293	0.1
712.614	0.11
712.935	0.1
713.256	0.1
713.577	0.11
713.898	0.1
714.219	0.1
714.54	0.1
714.861	0.09
715.182	0.1
715.503	0.09
715.823	0.1
716.144	0.09
716.464	0.09
716.785	0.09
717.105	0.09
717.426	0.09
717.746	0.09
718.066	0.08
718.387	0.09
718.707	0.09
719.027	0.09
719.347	0.08
719.667	0.09
719.987	0.08
720.307	0.08
720.627	0.08
720.947	0.09
721.266	0.08
721.586	0.08
721.906	0.08
722.225	0.07
722.545	0.08
722.864	0.08
723.184	0.09
723.503	0.08
723.823	0.08
