Data from 12-12-AQDScycling_Absorbance__282__00282.txt Node

Date: Tue Dec 12 12:07:14 EST 2023
User: kyuminlee
Spectrometer: FLMS00943
Trigger mode: 0
Integration Time (sec): 1.000000E-1
Scans to average: 1
Electric dark correction enabled: true
Nonlinearity correction enabled: false
Boxcar width: 0
XAxis mode: Wavelengths
Number of Pixels in Spectrum: 2048
>>>>>Begin Spectral Data<<<<<
179.651	0.08
180.037	0.08
180.424	0.08
180.81	-0.44
181.197	0.56
181.583	-0.31
181.97	-0.01
182.356	-0.99
182.743	-0
183.129	0.97
183.515	0.49
183.901	-2.42
184.288	0.14
184.674	1.22
185.06	-1.14
185.446	-0.53
185.832	-1.4
186.218	-0.06
186.604	-0.01
186.99	-0.29
187.376	-0
187.762	0.01
188.148	-0
188.534	0.12
188.92	0.16
189.305	0.2
189.691	0.22
190.077	0.27
190.463	0.23
190.848	0.18
191.234	-0.04
191.619	0.05
192.005	0.24
192.391	0.2
192.776	0.2
193.161	0.27
193.547	0.37
193.932	0.16
194.318	0.11
194.703	0.3
195.088	0.22
195.473	0.13
195.859	0.35
196.244	0.19
196.629	0.06
197.014	0.02
197.399	0.21
197.784	0.25
198.169	0.22
198.554	0.29
198.939	0.25
199.324	0.12
199.709	0.22
200.094	0.18
200.478	0.1
200.863	0.14
201.248	0.24
201.633	0.21
202.017	0.22
202.402	0.1
202.787	0.09
203.171	0.31
203.556	0.19
203.94	0.17
204.325	0.29
204.709	0.18
205.093	0.36
205.478	0.28
205.862	0.12
206.246	0.11
206.631	0.22
207.015	0.11
207.399	0.29
207.783	0.23
208.167	0.22
208.551	0.28
208.935	0.21
209.319	0.23
209.703	0.17
210.087	0.48
210.471	0.07
210.855	0.21
211.239	0.49
211.623	0.21
212.007	0.25
212.39	0.33
212.774	0.32
213.158	0.16
213.541	0.31
213.925	0.26
214.309	0.39
214.692	0.34
215.076	0.39
215.459	0.31
215.842	0.32
216.226	0.22
216.609	0.33
216.993	0.3
217.376	0.63
217.759	0.23
218.142	0.35
218.525	0.47
218.909	0.3
219.292	0.38
219.675	0.42
220.058	0.41
220.441	0.57
220.824	0.45
221.207	0.58
221.59	0.52
221.973	0.51
222.355	0.74
222.738	0.94
223.121	0.68
223.504	0.6
223.886	0.61
224.269	0.88
224.652	0.63
225.034	0.79
225.417	0.66
225.799	0.81
226.182	1.02
226.564	0.89
226.947	0.82
227.329	0.73
227.711	0.94
228.094	1.11
228.476	0.87
228.858	0.94
229.24	0.78
229.623	0.91
230.005	0.89
230.387	0.98
230.769	0.86
231.151	0.96
231.533	0.97
231.915	0.95
232.297	1.07
232.679	0.99
233.061	1
233.442	0.98
233.824	1.23
234.206	1.11
234.588	1.14
234.969	1.09
235.351	1.01
235.733	1.1
236.114	1.2
236.496	1.07
236.877	1.06
237.259	1.08
237.64	1.08
238.022	1.08
238.403	1.08
238.784	1
239.165	1.03
239.547	1.18
239.928	1.11
240.309	1.05
240.69	1.12
241.071	1.1
241.452	1.11
241.834	1.01
242.215	1.09
242.595	1.15
242.976	1.19
243.357	1.18
243.738	1.05
244.119	1.22
244.5	1.15
244.881	1.2
245.261	1.25
245.642	1.14
246.023	1.18
246.403	1.14
246.784	1.33
247.164	1.28
247.545	1.37
247.925	1.37
248.306	1.21
248.686	1.57
249.067	1.36
249.447	1.45
249.827	1.73
250.207	1.64
250.588	1.23
250.968	1.52
251.348	1.43
251.728	1.42
252.108	1.5
252.488	1.38
252.868	1.32
253.248	1.41
253.628	1.4
254.008	1.51
254.388	1.26
254.768	1.41
255.147	1.42
255.527	1.39
255.907	1.37
256.287	1.43
256.666	1.35
257.046	1.45
257.425	1.62
257.805	1.34
258.184	1.44
258.564	1.4
258.943	1.33
259.323	1.46
259.702	1.48
260.081	1.72
260.461	1.49
260.84	1.5
261.219	1.67
261.598	1.57
261.977	1.4
262.356	1.53
262.736	1.5
263.115	1.65
263.494	1.55
263.873	1.43
264.251	1.54
264.63	1.57
265.009	1.53
265.388	1.44
265.767	1.41
266.145	1.45
266.524	1.48
266.903	1.58
267.281	1.52
267.66	1.55
268.039	1.5
268.417	1.41
268.796	1.37
269.174	1.42
269.552	1.37
269.931	1.4
270.309	1.4
270.687	1.66
271.066	1.52
271.444	1.52
271.822	1.48
272.2	1.41
272.578	1.38
272.956	1.61
273.334	1.45
273.712	1.35
274.09	1.61
274.468	1.43
274.846	1.36
275.224	1.38
275.602	1.48
275.98	1.8
276.357	1.53
276.735	1.53
277.113	1.44
277.49	1.4
277.868	1.37
278.246	1.44
278.623	1.41
279.001	1.45
279.378	1.52
279.756	1.62
280.133	1.84
280.51	1.48
280.888	1.56
281.265	1.48
281.642	1.49
282.019	1.68
282.396	1.61
282.773	1.56
283.151	1.72
283.528	1.59
283.905	1.45
284.282	1.65
284.659	1.6
285.035	1.42
285.412	1.35
285.789	1.6
286.166	1.68
286.543	1.42
286.919	1.59
287.296	1.37
287.673	1.7
288.049	1.6
288.426	1.6
288.802	1.59
289.179	1.46
289.555	1.84
289.932	1.52
290.308	1.37
290.684	1.41
291.061	1.39
291.437	1.55
291.813	1.42
292.189	1.39
292.565	1.43
292.942	1.37
293.318	1.39
293.694	1.36
294.07	1.3
294.446	1.47
294.822	1.51
295.197	1.53
295.573	1.54
295.949	1.51
296.325	1.47
296.701	1.59
297.076	1.6
297.452	1.52
297.828	1.51
298.203	1.65
298.579	1.49
298.954	1.5
299.33	1.5
299.705	1.47
300.081	1.54
300.456	1.5
300.831	1.37
301.206	1.46
301.582	1.64
301.957	1.54
302.332	1.51
302.707	1.42
303.082	1.4
303.457	1.49
303.832	1.48
304.207	1.34
304.582	1.39
304.957	1.48
305.332	1.54
305.707	1.48
306.082	1.39
306.456	1.57
306.831	1.45
307.206	1.48
307.58	1.4
307.955	1.36
308.33	1.56
308.704	1.42
309.079	1.51
309.453	1.56
309.828	1.56
310.202	1.42
310.576	1.31
310.951	1.53
311.325	1.53
311.699	1.46
312.073	1.41
312.447	1.41
312.821	1.34
313.196	1.57
313.57	1.29
313.944	1.49
314.317	1.32
314.691	1.42
315.065	1.47
315.439	1.37
315.813	1.39
316.187	1.37
316.56	1.56
316.934	1.49
317.308	1.4
317.681	1.38
318.055	1.38
318.428	1.41
318.802	1.5
319.175	1.41
319.549	1.54
319.922	1.41
320.295	1.49
320.669	1.57
321.042	1.43
321.415	1.68
321.788	1.51
322.162	1.51
322.535	1.45
322.908	1.64
323.281	1.56
323.654	1.76
324.027	1.42
324.4	1.73
324.773	1.67
325.145	1.51
325.518	1.4
325.891	1.39
326.264	1.56
326.636	1.37
327.009	1.52
327.382	1.42
327.754	1.63
328.127	1.49
328.499	1.47
328.872	1.48
329.244	1.43
329.616	1.53
329.989	1.51
330.361	1.45
330.733	1.52
331.106	1.55
331.478	1.76
331.85	1.43
332.222	1.56
332.594	1.45
332.966	1.69
333.338	1.51
333.71	1.51
334.082	1.59
334.454	1.54
334.826	1.46
335.197	1.52
335.569	1.5
335.941	1.47
336.312	1.44
336.684	1.51
337.056	1.37
337.427	1.54
337.799	1.64
338.17	1.53
338.542	1.45
338.913	1.64
339.284	1.69
339.656	1.52
340.027	1.74
340.398	1.45
340.769	1.61
341.141	1.74
341.512	1.52
341.883	1.57
342.254	1.4
342.625	1.71
342.996	1.41
343.367	1.56
343.738	1.47
344.108	1.47
344.479	1.76
344.85	1.54
345.221	1.62
345.591	1.51
345.962	1.44
346.333	1.49
346.703	1.36
347.074	1.46
347.444	1.23
347.815	1.42
348.185	1.44
348.556	1.33
348.926	1.43
349.296	1.44
349.666	1.46
350.037	1.34
350.407	1.36
350.777	1.4
351.147	1.32
351.517	1.42
351.887	1.35
352.257	1.37
352.627	1.37
352.997	1.25
353.367	1.31
353.737	1.45
354.106	1.38
354.476	1.38
354.846	1.39
355.216	1.51
355.585	1.47
355.955	1.46
356.324	1.33
356.694	1.29
357.063	1.44
357.433	1.37
357.802	1.31
358.171	1.43
358.541	1.37
358.91	1.45
359.279	1.34
359.648	1.33
360.017	1.37
360.387	1.33
360.756	1.28
361.125	1.41
361.494	1.46
361.863	1.26
362.231	1.34
362.6	1.29
362.969	1.39
363.338	1.32
363.707	1.37
364.075	1.38
364.444	1.25
364.813	1.25
365.181	1.3
365.55	1.3
365.918	1.49
366.287	1.35
366.655	1.35
367.024	1.39
367.392	1.33
367.76	1.32
368.128	1.33
368.497	1.34
368.865	1.35
369.233	1.33
369.601	1.31
369.969	1.38
370.337	1.28
370.705	1.28
371.073	1.27
371.441	1.26
371.809	1.39
372.177	1.3
372.544	1.33
372.912	1.4
373.28	1.25
373.647	1.38
374.015	1.38
374.383	1.54
374.75	1.44
375.118	1.36
375.485	1.36
375.853	1.34
376.22	1.36
376.587	1.49
376.955	1.44
377.322	1.37
377.689	1.47
378.056	1.37
378.423	1.34
378.79	1.44
379.157	1.42
379.524	1.33
379.891	1.37
380.258	1.4
380.625	1.45
380.992	1.45
381.359	1.51
381.726	1.57
382.092	1.35
382.459	1.39
382.826	1.45
383.192	1.55
383.559	1.55
383.925	1.47
384.292	1.4
384.658	1.57
385.025	1.43
385.391	1.91
385.757	1.7
386.123	1.54
386.49	1.44
386.856	1.47
387.222	1.56
387.588	1.55
387.954	1.68
388.32	1.69
388.686	1.56
389.052	1.59
389.418	1.59
389.784	1.41
390.15	1.48
390.515	1.44
390.881	1.73
391.247	1.45
391.613	1.72
391.978	1.44
392.344	1.65
392.709	1.48
393.075	1.74
393.44	1.56
393.806	1.52
394.171	1.4
394.536	1.52
394.902	1.48
395.267	1.4
395.632	1.56
395.997	1.51
396.362	1.46
396.727	1.47
397.092	1.35
397.457	1.56
397.822	1.52
398.187	1.51
398.552	1.47
398.917	1.6
399.282	1.37
399.646	1.56
400.011	1.49
400.376	1.42
400.74	1.41
401.105	1.35
401.47	1.45
401.834	1.53
402.199	1.34
402.563	1.4
402.927	1.49
403.292	1.36
403.656	1.46
404.02	1.37
404.384	1.51
404.749	1.36
405.113	1.42
405.477	1.5
405.841	1.41
406.205	1.4
406.569	1.32
406.933	1.39
407.296	1.36
407.66	1.29
408.024	1.4
408.388	1.43
408.752	1.33
409.115	1.37
409.479	1.3
409.842	1.34
410.206	1.26
410.569	1.23
410.933	1.3
411.296	1.21
411.66	1.29
412.023	1.25
412.386	1.25
412.749	1.27
413.113	1.26
413.476	1.28
413.839	1.22
414.202	1.29
414.565	1.18
414.928	1.18
415.291	1.21
415.654	1.2
416.017	1.27
416.38	1.16
416.742	1.18
417.105	1.12
417.468	1.2
417.83	1.2
418.193	1.3
418.556	1.14
418.918	1.17
419.281	1.19
419.643	1.23
420.005	1.15
420.368	1.15
420.73	1.13
421.092	1.17
421.455	1.2
421.817	1.08
422.179	1.09
422.541	1.17
422.903	1.14
423.265	1.18
423.627	1.14
423.989	1.15
424.351	1.12
424.713	1.17
425.075	1.12
425.436	1.15
425.798	1.1
426.16	1.18
426.521	1.1
426.883	1.18
427.245	1.12
427.606	1.08
427.967	1.11
428.329	1.08
428.69	1.1
429.052	1.05
429.413	1.11
429.774	1.09
430.135	1.09
430.497	1.13
430.858	1.07
431.219	1.07
431.58	1.05
431.941	1.03
432.302	1.04
432.663	1.05
433.024	1.11
433.384	1.06
433.745	1.03
434.106	1.08
434.467	1.03
434.827	1.05
435.188	1.04
435.548	1.05
435.909	1.03
436.269	1.06
436.63	1
436.99	1.02
437.351	0.96
437.711	1.05
438.071	1.01
438.431	0.98
438.792	0.99
439.152	0.98
439.512	0.97
439.872	0.98
440.232	1.01
440.592	0.97
440.952	0.96
441.312	0.96
441.671	0.95
442.031	0.94
442.391	0.92
442.751	0.94
443.11	0.95
443.47	0.93
443.83	0.89
444.189	0.9
444.549	0.9
444.908	0.9
445.267	0.9
445.627	0.87
445.986	0.9
446.345	0.88
446.705	0.89
447.064	0.89
447.423	0.88
447.782	0.88
448.141	0.86
448.5	0.83
448.859	0.84
449.218	0.85
449.577	0.84
449.936	0.83
450.295	0.84
450.653	0.82
451.012	0.82
451.371	0.82
451.729	0.81
452.088	0.82
452.447	0.83
452.805	0.79
453.163	0.8
453.522	0.81
453.88	0.77
454.239	0.77
454.597	0.75
454.955	0.74
455.313	0.74
455.671	0.75
456.029	0.76
456.388	0.73
456.746	0.73
457.104	0.71
457.461	0.71
457.819	0.7
458.177	0.69
458.535	0.68
458.893	0.67
459.25	0.67
459.608	0.66
459.966	0.64
460.323	0.64
460.681	0.64
461.038	0.63
461.396	0.62
461.753	0.62
462.111	0.61
462.468	0.59
462.825	0.6
463.182	0.58
463.54	0.58
463.897	0.59
464.254	0.57
464.611	0.56
464.968	0.56
465.325	0.55
465.682	0.55
466.039	0.53
466.395	0.53
466.752	0.52
467.109	0.52
467.466	0.51
467.822	0.52
468.179	0.49
468.535	0.49
468.892	0.49
469.248	0.48
469.605	0.48
469.961	0.48
470.318	0.48
470.674	0.47
471.03	0.46
471.386	0.45
471.743	0.45
472.099	0.44
472.455	0.44
472.811	0.42
473.167	0.42
473.523	0.4
473.879	0.41
474.235	0.41
474.59	0.4
474.946	0.39
475.302	0.39
475.657	0.39
476.013	0.39
476.369	0.37
476.724	0.38
477.08	0.37
477.435	0.36
477.791	0.36
478.146	0.35
478.501	0.35
478.857	0.34
479.212	0.34
479.567	0.33
479.922	0.32
480.277	0.33
480.632	0.32
480.987	0.32
481.342	0.32
481.697	0.31
482.052	0.31
482.407	0.3
482.762	0.29
483.116	0.3
483.471	0.29
483.826	0.28
484.18	0.28
484.535	0.28
484.89	0.28
485.244	0.27
485.598	0.27
485.953	0.28
486.307	0.26
486.661	0.27
487.016	0.26
487.37	0.26
487.724	0.26
488.078	0.25
488.432	0.25
488.786	0.25
489.14	0.25
489.494	0.23
489.848	0.24
490.202	0.23
490.556	0.23
490.91	0.23
491.263	0.23
491.617	0.23
491.971	0.22
492.324	0.22
492.678	0.23
493.031	0.22
493.385	0.22
493.738	0.22
494.091	0.22
494.445	0.21
494.798	0.21
495.151	0.21
495.504	0.21
495.857	0.21
496.21	0.21
496.564	0.2
496.916	0.21
497.269	0.2
497.622	0.21
497.975	0.21
498.328	0.2
498.681	0.2
499.033	0.21
499.386	0.2
499.739	0.2
500.091	0.19
500.444	0.19
500.796	0.19
501.149	0.19
501.501	0.19
501.854	0.19
502.206	0.19
502.558	0.19
502.91	0.19
503.263	0.18
503.615	0.17
503.967	0.18
504.319	0.19
504.671	0.18
505.023	0.18
505.375	0.18
505.726	0.18
506.078	0.18
506.43	0.17
506.782	0.18
507.133	0.17
507.485	0.17
507.837	0.18
508.188	0.18
508.54	0.18
508.891	0.18
509.243	0.17
509.594	0.17
509.945	0.16
510.296	0.17
510.648	0.18
510.999	0.16
511.35	0.17
511.701	0.17
512.052	0.17
512.403	0.18
512.754	0.17
513.105	0.17
513.456	0.17
513.807	0.17
514.157	0.17
514.508	0.17
514.859	0.16
515.209	0.16
515.56	0.17
515.91	0.16
516.261	0.16
516.611	0.16
516.962	0.17
517.312	0.16
517.662	0.17
518.013	0.16
518.363	0.17
518.713	0.16
519.063	0.17
519.413	0.16
519.763	0.16
520.113	0.16
520.463	0.16
520.813	0.17
521.163	0.17
521.512	0.16
521.862	0.17
522.212	0.17
522.562	0.17
522.911	0.16
523.261	0.17
523.61	0.16
523.96	0.17
524.309	0.17
524.658	0.17
525.008	0.17
525.357	0.16
525.706	0.17
526.056	0.16
526.405	0.16
526.754	0.17
527.103	0.15
527.452	0.16
527.801	0.16
528.15	0.16
528.499	0.16
528.847	0.16
529.196	0.17
529.545	0.18
529.893	0.18
530.242	0.17
530.591	0.18
530.939	0.18
531.288	0.18
531.636	0.18
531.985	0.17
532.333	0.17
532.681	0.17
533.029	0.17
533.378	0.18
533.726	0.18
534.074	0.18
534.422	0.17
534.77	0.18
535.118	0.17
535.466	0.18
535.814	0.17
536.162	0.18
536.509	0.18
536.857	0.17
537.205	0.18
537.552	0.17
537.9	0.18
538.248	0.17
538.595	0.18
538.943	0.18
539.29	0.17
539.637	0.18
539.985	0.18
540.332	0.17
540.679	0.17
541.026	0.17
541.373	0.18
541.721	0.17
542.068	0.17
542.415	0.17
542.762	0.17
543.108	0.16
543.455	0.16
543.802	0.16
544.149	0.17
544.496	0.17
544.842	0.17
545.189	0.16
545.535	0.16
545.882	0.17
546.228	0.16
546.575	0.16
546.921	0.17
547.267	0.16
547.614	0.16
547.96	0.16
548.306	0.15
548.652	0.16
548.998	0.17
549.344	0.17
549.69	0.16
550.036	0.17
550.382	0.17
550.728	0.17
551.074	0.17
551.42	0.17
551.765	0.18
552.111	0.18
552.457	0.18
552.802	0.17
553.148	0.17
553.493	0.17
553.839	0.18
554.184	0.18
554.529	0.17
554.875	0.18
555.22	0.18
555.565	0.18
555.91	0.18
556.255	0.18
556.6	0.18
556.945	0.17
557.29	0.18
557.635	0.18
557.98	0.18
558.325	0.17
558.67	0.18
559.014	0.18
559.359	0.18
559.704	0.18
560.048	0.17
560.393	0.17
560.737	0.17
561.082	0.17
561.426	0.17
561.77	0.17
562.115	0.17
562.459	0.17
562.803	0.17
563.147	0.17
563.491	0.18
563.835	0.18
564.179	0.18
564.523	0.17
564.867	0.16
565.211	0.17
565.555	0.18
565.899	0.18
566.242	0.18
566.586	0.17
566.93	0.18
567.273	0.18
567.617	0.18
567.96	0.18
568.304	0.18
568.647	0.17
568.99	0.18
569.334	0.19
569.677	0.18
570.02	0.18
570.363	0.18
570.706	0.17
571.049	0.17
571.392	0.18
571.735	0.17
572.078	0.17
572.421	0.18
572.764	0.17
573.106	0.17
573.449	0.17
573.792	0.17
574.134	0.17
574.477	0.18
574.819	0.17
575.162	0.18
575.504	0.17
575.847	0.18
576.189	0.18
576.531	0.18
576.873	0.18
577.215	0.17
577.558	0.18
577.9	0.17
578.242	0.17
578.584	0.17
578.926	0.17
579.267	0.18
579.609	0.17
579.951	0.17
580.293	0.17
580.634	0.18
580.976	0.18
581.318	0.18
581.659	0.17
582.001	0.18
582.342	0.18
582.683	0.18
583.025	0.17
583.366	0.17
583.707	0.18
584.049	0.17
584.39	0.17
584.731	0.17
585.072	0.16
585.413	0.17
585.754	0.17
586.095	0.18
586.435	0.17
586.776	0.18
587.117	0.17
587.458	0.18
587.798	0.17
588.139	0.18
588.48	0.17
588.82	0.17
589.161	0.17
589.501	0.17
589.841	0.17
590.182	0.17
590.522	0.17
590.862	0.17
591.202	0.17
591.542	0.17
591.882	0.17
592.222	0.18
592.562	0.17
592.902	0.17
593.242	0.17
593.582	0.18
593.922	0.17
594.261	0.17
594.601	0.17
594.941	0.17
595.28	0.18
595.62	0.17
595.959	0.17
596.299	0.17
596.638	0.17
596.977	0.17
597.317	0.17
597.656	0.17
597.995	0.17
598.334	0.18
598.673	0.17
599.012	0.17
599.351	0.17
599.69	0.17
600.029	0.17
600.368	0.17
600.707	0.17
601.046	0.16
601.384	0.17
601.723	0.17
602.061	0.17
602.4	0.17
602.738	0.17
603.077	0.17
603.415	0.17
603.754	0.17
604.092	0.17
604.43	0.17
604.768	0.17
605.107	0.17
605.445	0.16
605.783	0.17
606.121	0.17
606.459	0.17
606.796	0.17
607.134	0.16
607.472	0.16
607.81	0.17
608.148	0.16
608.485	0.17
608.823	0.16
609.16	0.16
609.498	0.16
609.835	0.16
610.173	0.16
610.51	0.18
610.847	0.17
611.185	0.17
611.522	0.17
611.859	0.18
612.196	0.17
612.533	0.17
612.87	0.18
613.207	0.18
613.544	0.17
613.881	0.18
614.217	0.17
614.554	0.17
614.891	0.17
615.228	0.17
615.564	0.17
615.901	0.17
616.237	0.17
616.574	0.17
616.91	0.18
617.246	0.17
617.583	0.18
617.919	0.17
618.255	0.18
618.591	0.18
618.927	0.17
619.263	0.18
619.599	0.18
619.935	0.17
620.271	0.17
620.607	0.18
620.943	0.17
621.279	0.18
621.614	0.17
621.95	0.17
622.286	0.18
622.621	0.16
622.957	0.17
623.292	0.16
623.627	0.16
623.963	0.16
624.298	0.16
624.633	0.16
624.968	0.16
625.304	0.16
625.639	0.16
625.974	0.15
626.309	0.15
626.644	0.16
626.979	0.16
627.313	0.15
627.648	0.16
627.983	0.16
628.318	0.15
628.652	0.15
628.987	0.16
629.321	0.16
629.656	0.15
629.99	0.15
630.325	0.16
630.659	0.16
630.993	0.16
631.327	0.16
631.662	0.15
631.996	0.16
632.33	0.15
632.664	0.16
632.998	0.15
633.332	0.15
633.666	0.15
633.999	0.15
634.333	0.15
634.667	0.15
635.001	0.14
635.334	0.15
635.668	0.15
636.001	0.15
636.335	0.15
636.668	0.15
637.001	0.14
637.335	0.14
637.668	0.15
638.001	0.14
638.334	0.14
638.668	0.14
639.001	0.15
639.334	0.13
639.667	0.14
639.999	0.14
640.332	0.14
640.665	0.13
640.998	0.14
641.331	0.14
641.663	0.13
641.996	0.13
642.328	0.14
642.661	0.14
642.993	0.13
643.326	0.14
643.658	0.13
643.99	0.13
644.323	0.14
644.655	0.14
644.987	0.13
645.319	0.14
645.651	0.14
645.983	0.14
646.315	0.14
646.647	0.14
646.979	0.14
647.31	0.14
647.642	0.14
647.974	0.14
648.305	0.14
648.637	0.15
648.968	0.14
649.3	0.14
649.631	0.15
649.963	0.14
650.294	0.15
650.625	0.14
650.957	0.15
651.288	0.14
651.619	0.15
651.95	0.15
652.281	0.15
652.612	0.14
652.943	0.15
653.274	0.15
653.604	0.14
653.935	0.15
654.266	0.14
654.596	0.14
654.927	0.14
655.258	0.14
655.588	0.15
655.918	0.15
656.249	0.13
656.579	0.13
656.909	0.14
657.24	0.14
657.57	0.15
657.9	0.15
658.23	0.14
658.56	0.15
658.89	0.15
659.22	0.14
659.55	0.15
659.88	0.15
660.209	0.15
660.539	0.15
660.869	0.15
661.198	0.15
661.528	0.15
661.857	0.14
662.187	0.15
662.516	0.14
662.846	0.14
663.175	0.15
663.504	0.14
663.833	0.14
664.163	0.14
664.492	0.14
664.821	0.14
665.15	0.13
665.479	0.13
665.807	0.13
666.136	0.14
666.465	0.13
666.794	0.13
667.122	0.13
667.451	0.13
667.78	0.13
668.108	0.14
668.437	0.12
668.765	0.13
669.093	0.13
669.422	0.13
669.75	0.13
670.078	0.13
670.406	0.14
670.734	0.13
671.062	0.13
671.39	0.13
671.718	0.13
672.046	0.13
672.374	0.13
672.702	0.13
673.029	0.13
673.357	0.14
673.685	0.13
674.012	0.12
674.34	0.13
674.667	0.14
674.995	0.14
675.322	0.14
675.649	0.13
675.977	0.13
676.304	0.13
676.631	0.13
676.958	0.13
677.285	0.13
677.612	0.12
677.939	0.12
678.266	0.13
678.593	0.13
678.92	0.13
679.246	0.12
679.573	0.12
679.9	0.12
680.226	0.12
680.553	0.12
680.879	0.12
681.206	0.12
681.532	0.12
681.858	0.12
682.184	0.11
682.511	0.12
682.837	0.12
683.163	0.12
683.489	0.12
683.815	0.11
684.141	0.12
684.467	0.11
684.793	0.11
685.118	0.11
685.444	0.12
685.77	0.11
686.095	0.11
686.421	0.12
686.746	0.12
687.072	0.12
687.397	0.11
687.723	0.12
688.048	0.13
688.373	0.12
688.698	0.12
689.023	0.12
689.349	0.12
689.674	0.12
689.999	0.11
690.323	0.11
690.648	0.11
690.973	0.11
691.298	0.11
691.623	0.11
691.947	0.11
692.272	0.1
692.596	0.11
692.921	0.12
693.245	0.11
693.57	0.11
693.894	0.11
694.218	0.11
694.543	0.1
694.867	0.11
695.191	0.11
695.515	0.11
695.839	0.1
696.163	0.1
696.487	0.11
696.811	0.1
697.135	0.11
697.458	0.1
697.782	0.11
698.106	0.11
698.429	0.11
698.753	0.11
699.076	0.1
699.4	0.1
699.723	0.11
700.046	0.1
700.37	0.11
700.693	0.11
701.016	0.1
701.339	0.11
701.662	0.11
701.985	0.11
702.308	0.1
702.631	0.1
702.954	0.11
703.277	0.1
703.599	0.1
703.922	0.1
704.245	0.1
704.567	0.1
704.89	0.09
705.212	0.1
705.535	0.09
705.857	0.1
706.179	0.09
706.502	0.08
706.824	0.09
707.146	0.09
707.468	0.1
707.79	0.09
708.112	0.1
708.434	0.1
708.756	0.1
709.078	0.09
709.399	0.09
709.721	0.09
710.043	0.1
710.364	0.09
710.686	0.1
711.007	0.09
711.329	0.1
711.65	0.1
711.972	0.09
712.293	0.1
712.614	0.09
712.935	0.1
713.256	0.1
713.577	0.1
713.898	0.09
714.219	0.09
714.54	0.1
714.861	0.09
715.182	0.09
715.503	0.09
715.823	0.09
716.144	0.08
716.464	0.09
716.785	0.08
717.105	0.09
717.426	0.09
717.746	0.08
718.066	0.08
718.387	0.09
718.707	0.07
719.027	0.08
719.347	0.08
719.667	0.08
719.987	0.07
720.307	0.08
720.627	0.08
720.947	0.07
721.266	0.07
721.586	0.07
721.906	0.07
722.225	0.07
722.545	0.07
722.864	0.07
723.184	0.07
