Data from 12-12-AQDScycling_Absorbance__889__00889.txt Node

Date: Tue Dec 12 14:38:59 EST 2023
User: kyuminlee
Spectrometer: FLMS00943
Trigger mode: 0
Integration Time (sec): 1.000000E-1
Scans to average: 1
Electric dark correction enabled: true
Nonlinearity correction enabled: false
Boxcar width: 0
XAxis mode: Wavelengths
Number of Pixels in Spectrum: 2048
>>>>>Begin Spectral Data<<<<<
179.651	1.43
180.037	1.43
180.424	1.43
180.81	-0
181.197	0.13
181.583	0.04
181.97	-0.49
182.356	-0
182.743	-0.19
183.129	0.11
183.515	0.58
183.901	-2.27
184.288	1.08
184.674	0.72
185.06	-0
185.446	-0
185.832	-0
186.218	0.93
186.604	0.27
186.99	-0
187.376	-0
187.762	-0.12
188.148	-0
188.534	0.32
188.92	0.03
189.305	0.02
189.691	0.25
190.077	0.17
190.463	0.08
190.848	0.1
191.234	0.01
191.619	0.01
192.005	0.06
192.391	0.11
192.776	0.1
193.161	0.19
193.547	0.15
193.932	0.07
194.318	0.05
194.703	0.22
195.088	0.33
195.473	0.14
195.859	0.14
196.244	0.19
196.629	0.14
197.014	0.2
197.399	0.16
197.784	0.27
198.169	0.08
198.554	0.21
198.939	0.06
199.324	0.03
199.709	0.12
200.094	0.08
200.478	0.11
200.863	0.11
201.248	0.19
201.633	0.14
202.017	0.08
202.402	0.24
202.787	0.05
203.171	0.14
203.556	0.14
203.94	0.04
204.325	0.25
204.709	0.26
205.093	0.1
205.478	0.14
205.862	0.2
206.246	0.19
206.631	0.16
207.015	0.13
207.399	0.18
207.783	0.2
208.167	0.13
208.551	0.18
208.935	0.09
209.319	0.18
209.703	0.19
210.087	0.26
210.471	0.03
210.855	0.18
211.239	0.22
211.623	0.23
212.007	0.22
212.39	0.22
212.774	0.12
213.158	0.14
213.541	0.37
213.925	0.26
214.309	0.48
214.692	0.42
215.076	0.16
215.459	0.18
215.842	0.11
216.226	0.26
216.609	0.3
216.993	0.24
217.376	0.34
217.759	0.23
218.142	0.28
218.525	0.5
218.909	0.3
219.292	0.24
219.675	0.38
220.058	0.51
220.441	0.46
220.824	0.51
221.207	0.51
221.59	0.51
221.973	0.38
222.355	0.57
222.738	0.71
223.121	0.53
223.504	0.6
223.886	0.64
224.269	0.65
224.652	0.56
225.034	0.78
225.417	0.7
225.799	0.8
226.182	1.07
226.564	0.87
226.947	0.77
227.329	0.8
227.711	0.98
228.094	0.81
228.476	0.84
228.858	0.84
229.24	0.92
229.623	0.88
230.005	0.92
230.387	0.84
230.769	0.83
231.151	0.93
231.533	0.84
231.915	1
232.297	1.07
232.679	0.94
233.061	0.97
233.442	0.97
233.824	1.01
234.206	1.06
234.588	1.05
234.969	1.13
235.351	0.98
235.733	1.2
236.114	1.12
236.496	1.06
236.877	1.03
237.259	1.08
237.64	1.07
238.022	1.16
238.403	1.08
238.784	1.13
239.165	1.08
239.547	1.13
239.928	1.11
240.309	1.06
240.69	1.12
241.071	1.16
241.452	1.07
241.834	1.02
242.215	1.01
242.595	1.01
242.976	1.19
243.357	1.08
243.738	1.02
244.119	1.29
244.5	1.05
244.881	1.32
245.261	1.23
245.642	1.18
246.023	1.15
246.403	1.23
246.784	1.39
247.164	1.26
247.545	1.25
247.925	1.21
248.306	1.25
248.686	1.43
249.067	1.3
249.447	1.38
249.827	1.59
250.207	1.53
250.588	1.43
250.968	1.4
251.348	1.31
251.728	1.5
252.108	1.25
252.488	1.27
252.868	1.33
253.248	1.34
253.628	1.34
254.008	1.46
254.388	1.29
254.768	1.41
255.147	1.36
255.527	1.34
255.907	1.36
256.287	1.34
256.666	1.32
257.046	1.49
257.425	1.46
257.805	1.34
258.184	1.31
258.564	1.32
258.943	1.34
259.323	1.59
259.702	1.47
260.081	1.47
260.461	1.43
260.84	1.43
261.219	1.62
261.598	1.41
261.977	1.5
262.356	1.49
262.736	1.54
263.115	1.56
263.494	1.37
263.873	1.44
264.251	1.4
264.63	1.58
265.009	1.39
265.388	1.53
265.767	1.41
266.145	1.39
266.524	1.39
266.903	1.41
267.281	1.49
267.66	1.53
268.039	1.41
268.417	1.39
268.796	1.42
269.174	1.49
269.552	1.3
269.931	1.42
270.309	1.58
270.687	1.82
271.066	1.62
271.444	1.4
271.822	1.51
272.2	1.53
272.578	1.33
272.956	1.29
273.334	1.45
273.712	1.38
274.09	1.56
274.468	1.32
274.846	1.31
275.224	1.4
275.602	1.39
275.98	1.54
276.357	1.43
276.735	1.4
277.113	1.38
277.49	1.38
277.868	1.22
278.246	1.39
278.623	1.26
279.001	1.4
279.378	1.44
279.756	1.44
280.133	1.63
280.51	1.41
280.888	1.47
281.265	1.61
281.642	1.42
282.019	1.59
282.396	1.58
282.773	1.46
283.151	1.45
283.528	1.52
283.905	1.46
284.282	1.62
284.659	1.56
285.035	1.32
285.412	1.3
285.789	1.36
286.166	1.44
286.543	1.5
286.919	1.45
287.296	1.37
287.673	1.78
288.049	1.68
288.426	1.57
288.802	1.52
289.179	1.59
289.555	1.64
289.932	1.4
290.308	1.41
290.684	1.4
291.061	1.35
291.437	1.71
291.813	1.56
292.189	1.34
292.565	1.45
292.942	1.34
293.318	1.36
293.694	1.55
294.07	1.36
294.446	1.46
294.822	1.67
295.197	1.45
295.573	1.51
295.949	1.52
296.325	1.38
296.701	1.53
297.076	1.47
297.452	1.52
297.828	1.6
298.203	1.54
298.579	1.57
298.954	1.47
299.33	1.43
299.705	1.47
300.081	1.49
300.456	1.44
300.831	1.39
301.206	1.38
301.582	1.46
301.957	1.33
302.332	1.49
302.707	1.38
303.082	1.32
303.457	1.32
303.832	1.42
304.207	1.23
304.582	1.32
304.957	1.35
305.332	1.48
305.707	1.36
306.082	1.31
306.456	1.44
306.831	1.4
307.206	1.33
307.58	1.39
307.955	1.36
308.33	1.32
308.704	1.28
309.079	1.29
309.453	1.36
309.828	1.32
310.202	1.29
310.576	1.24
310.951	1.26
311.325	1.37
311.699	1.21
312.073	1.27
312.447	1.25
312.821	1.25
313.196	1.35
313.57	1.21
313.944	1.16
314.317	1.16
314.691	1.24
315.065	1.24
315.439	1.26
315.813	1.26
316.187	1.24
316.56	1.34
316.934	1.31
317.308	1.29
317.681	1.23
318.055	1.22
318.428	1.27
318.802	1.33
319.175	1.35
319.549	1.27
319.922	1.2
320.295	1.26
320.669	1.37
321.042	1.33
321.415	1.32
321.788	1.31
322.162	1.24
322.535	1.25
322.908	1.32
323.281	1.24
323.654	1.34
324.027	1.19
324.4	1.32
324.773	1.4
325.145	1.28
325.518	1.24
325.891	1.26
326.264	1.36
326.636	1.24
327.009	1.28
327.382	1.26
327.754	1.33
328.127	1.31
328.499	1.45
328.872	1.36
329.244	1.33
329.616	1.26
329.989	1.28
330.361	1.36
330.733	1.28
331.106	1.2
331.478	1.27
331.85	1.4
332.222	1.29
332.594	1.28
332.966	1.39
333.338	1.49
333.71	1.36
334.082	1.39
334.454	1.27
334.826	1.29
335.197	1.41
335.569	1.4
335.941	1.38
336.312	1.31
336.684	1.27
337.056	1.3
337.427	1.43
337.799	1.35
338.17	1.35
338.542	1.27
338.913	1.41
339.284	1.36
339.656	1.3
340.027	1.41
340.398	1.39
340.769	1.36
341.141	1.4
341.512	1.34
341.883	1.36
342.254	1.45
342.625	1.43
342.996	1.27
343.367	1.33
343.738	1.34
344.108	1.26
344.479	1.45
344.85	1.31
345.221	1.4
345.591	1.34
345.962	1.36
346.333	1.25
346.703	1.26
347.074	1.35
347.444	1.25
347.815	1.26
348.185	1.3
348.556	1.21
348.926	1.31
349.296	1.27
349.666	1.33
350.037	1.2
350.407	1.22
350.777	1.3
351.147	1.45
351.517	1.36
351.887	1.34
352.257	1.38
352.627	1.24
352.997	1.35
353.367	1.4
353.737	1.41
354.106	1.38
354.476	1.36
354.846	1.37
355.216	1.44
355.585	1.37
355.955	1.48
356.324	1.34
356.694	1.37
357.063	1.38
357.433	1.35
357.802	1.47
358.171	1.46
358.541	1.44
358.91	1.43
359.279	1.5
359.648	1.33
360.017	1.47
360.387	1.56
360.756	1.41
361.125	1.41
361.494	1.54
361.863	1.46
362.231	1.37
362.6	1.59
362.969	1.57
363.338	1.45
363.707	1.56
364.075	1.46
364.444	1.4
364.813	1.43
365.181	1.41
365.55	1.42
365.918	1.55
366.287	1.49
366.655	1.47
367.024	1.53
367.392	1.54
367.76	1.4
368.128	1.47
368.497	1.61
368.865	1.54
369.233	1.46
369.601	1.47
369.969	1.46
370.337	1.5
370.705	1.45
371.073	1.51
371.441	1.5
371.809	1.53
372.177	1.55
372.544	1.49
372.912	1.52
373.28	1.39
373.647	1.49
374.015	1.57
374.383	1.65
374.75	1.73
375.118	1.5
375.485	1.59
375.853	1.55
376.22	1.57
376.587	1.54
376.955	1.67
377.322	1.59
377.689	1.49
378.056	1.58
378.423	1.41
378.79	1.47
379.157	1.62
379.524	1.48
379.891	1.45
380.258	1.55
380.625	1.59
380.992	1.52
381.359	1.62
381.726	1.73
382.092	1.51
382.459	1.47
382.826	1.59
383.192	1.43
383.559	1.5
383.925	1.52
384.292	1.52
384.658	1.66
385.025	1.71
385.391	1.61
385.757	1.72
386.123	1.66
386.49	1.63
386.856	1.68
387.222	1.65
387.588	1.61
387.954	1.63
388.32	1.59
388.686	1.64
389.052	1.41
389.418	1.61
389.784	1.58
390.15	1.62
390.515	1.34
390.881	1.63
391.247	1.5
391.613	1.58
391.978	1.54
392.344	1.69
392.709	1.5
393.075	1.47
393.44	1.64
393.806	1.71
394.171	1.42
394.536	1.54
394.902	1.55
395.267	1.5
395.632	1.48
395.997	1.59
396.362	1.53
396.727	1.54
397.092	1.58
397.457	1.46
397.822	1.49
398.187	1.66
398.552	1.43
398.917	1.61
399.282	1.52
399.646	1.42
400.011	1.85
400.376	1.41
400.74	1.62
401.105	1.57
401.47	1.52
401.834	1.53
402.199	1.58
402.563	1.57
402.927	1.4
403.292	1.59
403.656	1.64
404.02	1.62
404.384	1.67
404.749	1.52
405.113	1.52
405.477	1.61
405.841	1.57
406.205	1.51
406.569	1.44
406.933	1.49
407.296	1.47
407.66	1.53
408.024	1.46
408.388	1.58
408.752	1.56
409.115	1.71
409.479	1.67
409.842	1.44
410.206	1.41
410.569	1.5
410.933	1.49
411.296	1.44
411.66	1.64
412.023	1.43
412.386	1.43
412.749	1.4
413.113	1.35
413.476	1.43
413.839	1.42
414.202	1.45
414.565	1.37
414.928	1.43
415.291	1.45
415.654	1.41
416.017	1.48
416.38	1.34
416.742	1.45
417.105	1.45
417.468	1.39
417.83	1.42
418.193	1.51
418.556	1.35
418.918	1.29
419.281	1.34
419.643	1.45
420.005	1.41
420.368	1.43
420.73	1.38
421.092	1.46
421.455	1.43
421.817	1.34
422.179	1.31
422.541	1.4
422.903	1.39
423.265	1.44
423.627	1.41
423.989	1.42
424.351	1.43
424.713	1.51
425.075	1.43
425.436	1.43
425.798	1.39
426.16	1.43
426.521	1.33
426.883	1.37
427.245	1.38
427.606	1.32
427.967	1.34
428.329	1.41
428.69	1.39
429.052	1.4
429.413	1.4
429.774	1.42
430.135	1.44
430.497	1.46
430.858	1.32
431.219	1.34
431.58	1.3
431.941	1.36
432.302	1.34
432.663	1.37
433.024	1.37
433.384	1.41
433.745	1.35
434.106	1.48
434.467	1.32
434.827	1.37
435.188	1.29
435.548	1.4
435.909	1.28
436.269	1.31
436.63	1.28
436.99	1.29
437.351	1.26
437.711	1.32
438.071	1.19
438.431	1.24
438.792	1.27
439.152	1.28
439.512	1.24
439.872	1.22
440.232	1.34
440.592	1.29
440.952	1.27
441.312	1.18
441.671	1.28
442.031	1.26
442.391	1.2
442.751	1.25
443.11	1.23
443.47	1.21
443.83	1.17
444.189	1.16
444.549	1.15
444.908	1.14
445.267	1.21
445.627	1.14
445.986	1.15
446.345	1.17
446.705	1.15
447.064	1.12
447.423	1.11
447.782	1.13
448.141	1.12
448.5	1.09
448.859	1.1
449.218	1.08
449.577	1.12
449.936	1.07
450.295	1.08
450.653	1.09
451.012	1.08
451.371	1.05
451.729	1.05
452.088	1.04
452.447	1.04
452.805	1.05
453.163	1.02
453.522	1.02
453.88	1
454.239	1.01
454.597	0.96
454.955	0.95
455.313	0.97
455.671	0.96
456.029	0.96
456.388	0.93
456.746	0.93
457.104	0.93
457.461	0.89
457.819	0.91
458.177	0.88
458.535	0.87
458.893	0.86
459.25	0.86
459.608	0.84
459.966	0.83
460.323	0.82
460.681	0.81
461.038	0.8
461.396	0.79
461.753	0.78
462.111	0.77
462.468	0.76
462.825	0.77
463.182	0.73
463.54	0.73
463.897	0.73
464.254	0.72
464.611	0.72
464.968	0.7
465.325	0.71
465.682	0.69
466.039	0.67
466.395	0.67
466.752	0.66
467.109	0.66
467.466	0.65
467.822	0.62
468.179	0.62
468.535	0.62
468.892	0.6
469.248	0.6
469.605	0.59
469.961	0.58
470.318	0.58
470.674	0.57
471.03	0.57
471.386	0.55
471.743	0.54
472.099	0.53
472.455	0.52
472.811	0.52
473.167	0.52
473.523	0.5
473.879	0.49
474.235	0.48
474.59	0.49
474.946	0.48
475.302	0.47
475.657	0.46
476.013	0.46
476.369	0.44
476.724	0.44
477.08	0.44
477.435	0.43
477.791	0.42
478.146	0.42
478.501	0.41
478.857	0.41
479.212	0.41
479.567	0.4
479.922	0.38
480.277	0.38
480.632	0.37
480.987	0.37
481.342	0.36
481.697	0.36
482.052	0.35
482.407	0.35
482.762	0.34
483.116	0.33
483.471	0.32
483.826	0.32
484.18	0.32
484.535	0.31
484.89	0.3
485.244	0.3
485.598	0.31
485.953	0.29
486.307	0.29
486.661	0.3
487.016	0.28
487.37	0.28
487.724	0.28
488.078	0.27
488.432	0.27
488.786	0.27
489.14	0.27
489.494	0.26
489.848	0.25
490.202	0.25
490.556	0.25
490.91	0.24
491.263	0.24
491.617	0.24
491.971	0.24
492.324	0.23
492.678	0.23
493.031	0.23
493.385	0.23
493.738	0.22
494.091	0.23
494.445	0.22
494.798	0.22
495.151	0.22
495.504	0.22
495.857	0.21
496.21	0.22
496.564	0.21
496.916	0.21
497.269	0.21
497.622	0.21
497.975	0.2
498.328	0.21
498.681	0.2
499.033	0.2
499.386	0.19
499.739	0.19
500.091	0.19
500.444	0.18
500.796	0.19
501.149	0.19
501.501	0.19
501.854	0.18
502.206	0.18
502.558	0.18
502.91	0.19
503.263	0.18
503.615	0.18
503.967	0.18
504.319	0.18
504.671	0.17
505.023	0.18
505.375	0.17
505.726	0.17
506.078	0.17
506.43	0.17
506.782	0.16
507.133	0.18
507.485	0.17
507.837	0.18
508.188	0.18
508.54	0.17
508.891	0.17
509.243	0.17
509.594	0.17
509.945	0.17
510.296	0.17
510.648	0.17
510.999	0.16
511.35	0.16
511.701	0.16
512.052	0.17
512.403	0.17
512.754	0.16
513.105	0.17
513.456	0.16
513.807	0.16
514.157	0.17
514.508	0.16
514.859	0.16
515.209	0.16
515.56	0.17
515.91	0.16
516.261	0.16
516.611	0.16
516.962	0.17
517.312	0.16
517.662	0.16
518.013	0.17
518.363	0.17
518.713	0.16
519.063	0.17
519.413	0.16
519.763	0.16
520.113	0.17
520.463	0.17
520.813	0.17
521.163	0.17
521.512	0.16
521.862	0.17
522.212	0.17
522.562	0.17
522.911	0.17
523.261	0.16
523.61	0.17
523.96	0.16
524.309	0.17
524.658	0.17
525.008	0.16
525.357	0.17
525.706	0.17
526.056	0.16
526.405	0.16
526.754	0.16
527.103	0.16
527.452	0.16
527.801	0.17
528.15	0.17
528.499	0.17
528.847	0.17
529.196	0.17
529.545	0.17
529.893	0.18
530.242	0.17
530.591	0.18
530.939	0.18
531.288	0.17
531.636	0.18
531.985	0.17
532.333	0.17
532.681	0.17
533.029	0.17
533.378	0.18
533.726	0.17
534.074	0.19
534.422	0.17
534.77	0.17
535.118	0.18
535.466	0.17
535.814	0.17
536.162	0.17
536.509	0.18
536.857	0.17
537.205	0.17
537.552	0.18
537.9	0.18
538.248	0.17
538.595	0.19
538.943	0.19
539.29	0.17
539.637	0.17
539.985	0.18
540.332	0.17
540.679	0.17
541.026	0.17
541.373	0.17
541.721	0.17
542.068	0.17
542.415	0.18
542.762	0.17
543.108	0.17
543.455	0.17
543.802	0.18
544.149	0.17
544.496	0.17
544.842	0.17
545.189	0.16
545.535	0.17
545.882	0.17
546.228	0.17
546.575	0.16
546.921	0.16
547.267	0.17
547.614	0.16
547.96	0.16
548.306	0.16
548.652	0.16
548.998	0.17
549.344	0.16
549.69	0.17
550.036	0.16
550.382	0.16
550.728	0.17
551.074	0.17
551.42	0.17
551.765	0.17
552.111	0.18
552.457	0.18
552.802	0.17
553.148	0.17
553.493	0.17
553.839	0.18
554.184	0.17
554.529	0.17
554.875	0.17
555.22	0.18
555.565	0.17
555.91	0.17
556.255	0.19
556.6	0.18
556.945	0.16
557.29	0.17
557.635	0.17
557.98	0.17
558.325	0.18
558.67	0.18
559.014	0.18
559.359	0.18
559.704	0.18
560.048	0.17
560.393	0.17
560.737	0.16
561.082	0.17
561.426	0.17
561.77	0.17
562.115	0.17
562.459	0.17
562.803	0.18
563.147	0.17
563.491	0.18
563.835	0.18
564.179	0.17
564.523	0.18
564.867	0.16
565.211	0.17
565.555	0.18
565.899	0.18
566.242	0.18
566.586	0.16
566.93	0.17
567.273	0.18
567.617	0.18
567.96	0.18
568.304	0.17
568.647	0.18
568.99	0.17
569.334	0.19
569.677	0.17
570.02	0.18
570.363	0.18
570.706	0.18
571.049	0.18
571.392	0.18
571.735	0.17
572.078	0.18
572.421	0.18
572.764	0.18
573.106	0.18
573.449	0.17
573.792	0.18
574.134	0.17
574.477	0.18
574.819	0.17
575.162	0.18
575.504	0.17
575.847	0.17
576.189	0.18
576.531	0.17
576.873	0.17
577.215	0.17
577.558	0.18
577.9	0.17
578.242	0.17
578.584	0.18
578.926	0.17
579.267	0.17
579.609	0.17
579.951	0.17
580.293	0.17
580.634	0.18
580.976	0.18
581.318	0.17
581.659	0.17
582.001	0.17
582.342	0.18
582.683	0.18
583.025	0.17
583.366	0.17
583.707	0.17
584.049	0.17
584.39	0.17
584.731	0.18
585.072	0.17
585.413	0.18
585.754	0.18
586.095	0.17
586.435	0.18
586.776	0.18
587.117	0.17
587.458	0.17
587.798	0.17
588.139	0.17
588.48	0.16
588.82	0.17
589.161	0.17
589.501	0.17
589.841	0.17
590.182	0.17
590.522	0.17
590.862	0.17
591.202	0.17
591.542	0.17
591.882	0.16
592.222	0.16
592.562	0.17
592.902	0.16
593.242	0.16
593.582	0.17
593.922	0.17
594.261	0.16
594.601	0.17
594.941	0.17
595.28	0.16
595.62	0.16
595.959	0.17
596.299	0.17
596.638	0.16
596.977	0.17
597.317	0.17
597.656	0.17
597.995	0.17
598.334	0.18
598.673	0.17
599.012	0.18
599.351	0.18
599.69	0.18
600.029	0.18
600.368	0.18
600.707	0.18
601.046	0.18
601.384	0.18
601.723	0.18
602.061	0.17
602.4	0.18
602.738	0.18
603.077	0.17
603.415	0.16
603.754	0.17
604.092	0.17
604.43	0.16
604.768	0.17
605.107	0.17
605.445	0.16
605.783	0.17
606.121	0.16
606.459	0.17
606.796	0.18
607.134	0.16
607.472	0.17
607.81	0.17
608.148	0.17
608.485	0.17
608.823	0.17
609.16	0.16
609.498	0.17
609.835	0.16
610.173	0.17
610.51	0.17
610.847	0.17
611.185	0.17
611.522	0.17
611.859	0.17
612.196	0.17
612.533	0.17
612.87	0.18
613.207	0.17
613.544	0.17
613.881	0.17
614.217	0.17
614.554	0.17
614.891	0.17
615.228	0.17
615.564	0.18
615.901	0.17
616.237	0.18
616.574	0.17
616.91	0.18
617.246	0.17
617.583	0.17
617.919	0.18
618.255	0.17
618.591	0.18
618.927	0.17
619.263	0.18
619.599	0.18
619.935	0.18
620.271	0.17
620.607	0.17
620.943	0.17
621.279	0.17
621.614	0.17
621.95	0.18
622.286	0.17
622.621	0.17
622.957	0.17
623.292	0.17
623.627	0.17
623.963	0.16
624.298	0.16
624.633	0.16
624.968	0.17
625.304	0.16
625.639	0.16
625.974	0.16
626.309	0.16
626.644	0.16
626.979	0.17
627.313	0.17
627.648	0.16
627.983	0.16
628.318	0.16
628.652	0.16
628.987	0.16
629.321	0.16
629.656	0.15
629.99	0.15
630.325	0.16
630.659	0.15
630.993	0.15
631.327	0.16
631.662	0.15
631.996	0.15
632.33	0.14
632.664	0.15
632.998	0.15
633.332	0.15
633.666	0.14
633.999	0.15
634.333	0.14
634.667	0.14
635.001	0.14
635.334	0.15
635.668	0.14
636.001	0.14
636.335	0.14
636.668	0.14
637.001	0.13
637.335	0.14
637.668	0.14
638.001	0.14
638.334	0.14
638.668	0.14
639.001	0.14
639.334	0.14
639.667	0.14
639.999	0.14
640.332	0.14
640.665	0.14
640.998	0.14
641.331	0.14
641.663	0.14
641.996	0.14
642.328	0.15
642.661	0.15
642.993	0.14
643.326	0.15
643.658	0.14
643.99	0.14
644.323	0.14
644.655	0.14
644.987	0.15
645.319	0.15
645.651	0.15
645.983	0.15
646.315	0.14
646.647	0.15
646.979	0.16
647.31	0.16
647.642	0.15
647.974	0.16
648.305	0.15
648.637	0.15
648.968	0.14
649.3	0.15
649.631	0.15
649.963	0.14
650.294	0.15
650.625	0.14
650.957	0.15
651.288	0.15
651.619	0.14
651.95	0.15
652.281	0.15
652.612	0.14
652.943	0.15
653.274	0.15
653.604	0.14
653.935	0.14
654.266	0.14
654.596	0.14
654.927	0.14
655.258	0.14
655.588	0.14
655.918	0.14
656.249	0.12
656.579	0.13
656.909	0.14
657.24	0.14
657.57	0.14
657.9	0.14
658.23	0.14
658.56	0.14
658.89	0.14
659.22	0.13
659.55	0.14
659.88	0.14
660.209	0.14
660.539	0.15
660.869	0.14
661.198	0.14
661.528	0.14
661.857	0.14
662.187	0.14
662.516	0.13
662.846	0.13
663.175	0.13
663.504	0.13
663.833	0.13
664.163	0.14
664.492	0.13
664.821	0.13
665.15	0.13
665.479	0.13
665.807	0.13
666.136	0.13
666.465	0.13
666.794	0.13
667.122	0.13
667.451	0.14
667.78	0.14
668.108	0.14
668.437	0.14
668.765	0.14
669.093	0.14
669.422	0.14
669.75	0.14
670.078	0.14
670.406	0.14
670.734	0.14
671.062	0.13
671.39	0.14
671.718	0.14
672.046	0.14
672.374	0.13
672.702	0.13
673.029	0.13
673.357	0.14
673.685	0.14
674.012	0.14
674.34	0.13
674.667	0.13
674.995	0.14
675.322	0.14
675.649	0.13
675.977	0.13
676.304	0.13
676.631	0.13
676.958	0.12
677.285	0.12
677.612	0.12
677.939	0.12
678.266	0.13
678.593	0.12
678.92	0.12
679.246	0.12
679.573	0.12
679.9	0.12
680.226	0.12
680.553	0.12
680.879	0.13
681.206	0.13
681.532	0.12
681.858	0.13
682.184	0.13
682.511	0.12
682.837	0.12
683.163	0.13
683.489	0.13
683.815	0.13
684.141	0.13
684.467	0.13
684.793	0.12
685.118	0.12
685.444	0.12
685.77	0.12
686.095	0.12
686.421	0.12
686.746	0.13
687.072	0.12
687.397	0.12
687.723	0.12
688.048	0.12
688.373	0.11
688.698	0.12
689.023	0.12
689.349	0.12
689.674	0.12
689.999	0.11
690.323	0.1
690.648	0.11
690.973	0.1
691.298	0.11
691.623	0.1
691.947	0.11
692.272	0.11
692.596	0.12
692.921	0.11
693.245	0.11
693.57	0.11
693.894	0.11
694.218	0.11
694.543	0.11
694.867	0.11
695.191	0.11
695.515	0.12
695.839	0.11
696.163	0.12
696.487	0.11
696.811	0.11
697.135	0.12
697.458	0.12
697.782	0.11
698.106	0.11
698.429	0.11
698.753	0.11
699.076	0.11
699.4	0.11
699.723	0.11
700.046	0.11
700.37	0.12
700.693	0.11
701.016	0.11
701.339	0.11
701.662	0.12
701.985	0.11
702.308	0.1
702.631	0.11
702.954	0.11
703.277	0.1
703.599	0.11
703.922	0.1
704.245	0.09
704.567	0.1
704.89	0.1
705.212	0.1
705.535	0.1
705.857	0.09
706.179	0.1
706.502	0.09
706.824	0.09
707.146	0.09
707.468	0.09
707.79	0.09
708.112	0.11
708.434	0.1
708.756	0.1
709.078	0.1
709.399	0.09
709.721	0.09
710.043	0.1
710.364	0.1
710.686	0.1
711.007	0.1
711.329	0.11
711.65	0.1
711.972	0.1
712.293	0.1
712.614	0.1
712.935	0.1
713.256	0.1
713.577	0.11
713.898	0.1
714.219	0.1
714.54	0.1
714.861	0.09
715.182	0.1
715.503	0.1
715.823	0.1
716.144	0.1
716.464	0.09
716.785	0.1
717.105	0.09
717.426	0.1
717.746	0.1
718.066	0.09
718.387	0.1
718.707	0.09
719.027	0.09
719.347	0.08
719.667	0.09
719.987	0.09
720.307	0.09
720.627	0.09
720.947	0.09
721.266	0.08
721.586	0.08
721.906	0.08
722.225	0.07
722.545	0.08
722.864	0.08
723.184	0.09
723.503	0.08
