Data from 12-12-AQDScycling_Absorbance__260__00260.txt Node

Date: Tue Dec 12 12:02:00 EST 2023
User: kyuminlee
Spectrometer: FLMS00943
Trigger mode: 0
Integration Time (sec): 1.000000E-1
Scans to average: 1
Electric dark correction enabled: true
Nonlinearity correction enabled: false
Boxcar width: 0
XAxis mode: Wavelengths
Number of Pixels in Spectrum: 2048
>>>>>Begin Spectral Data<<<<<
179.651	-0.43
180.037	-0.43
180.424	-0.43
180.81	-0.01
181.197	-0.05
181.583	-0.43
181.97	-0.34
182.356	-0
182.743	-0
183.129	0.58
183.515	0.2
183.901	-0
184.288	-0.09
184.674	0.42
185.06	-0.95
185.446	-0.19
185.832	-1.23
186.218	0.47
186.604	-0
186.99	-0.22
187.376	1.18
187.762	-0
188.148	0.63
188.534	-0.24
188.92	0.06
189.305	0.12
189.691	0.09
190.077	0.05
190.463	0.01
190.848	0.08
191.234	-0.03
191.619	0.07
192.005	0.05
192.391	0.07
192.776	0.13
193.161	0.17
193.547	0.06
193.932	0.02
194.318	0.07
194.703	0.16
195.088	0.14
195.473	0.22
195.859	0.23
196.244	0.12
196.629	0.39
197.014	0.14
197.399	0.22
197.784	0.17
198.169	0.28
198.554	0.37
198.939	0.13
199.324	0.22
199.709	0.08
200.094	0.14
200.478	0.16
200.863	0.14
201.248	0.35
201.633	0.09
202.017	0.23
202.402	0.12
202.787	0.12
203.171	0.1
203.556	0.19
203.94	0.16
204.325	0.27
204.709	0.3
205.093	0.1
205.478	0.16
205.862	0.04
206.246	0.12
206.631	0.18
207.015	0.26
207.399	0.23
207.783	0.17
208.167	0.07
208.551	0.24
208.935	0.17
209.319	0.18
209.703	0.13
210.087	0.38
210.471	0.12
210.855	0.19
211.239	0.18
211.623	0.3
212.007	0.46
212.39	0.26
212.774	0.1
213.158	0.21
213.541	0.31
213.925	0.22
214.309	0.35
214.692	0.22
215.076	0.39
215.459	0.22
215.842	0.38
216.226	0.15
216.609	0.22
216.993	0.19
217.376	0.43
217.759	0.11
218.142	0.3
218.525	0.71
218.909	0.36
219.292	0.47
219.675	0.48
220.058	0.41
220.441	0.51
220.824	0.39
221.207	0.62
221.59	0.44
221.973	0.52
222.355	0.63
222.738	0.74
223.121	0.56
223.504	0.52
223.886	0.6
224.269	0.74
224.652	0.73
225.034	0.86
225.417	0.75
225.799	0.71
226.182	0.83
226.564	0.96
226.947	0.76
227.329	0.77
227.711	0.84
228.094	0.92
228.476	0.9
228.858	0.8
229.24	0.76
229.623	0.86
230.005	0.89
230.387	0.91
230.769	0.8
231.151	1.03
231.533	1.15
231.915	0.87
232.297	0.89
232.679	1.01
233.061	1.04
233.442	1.01
233.824	1.04
234.206	1.19
234.588	1.12
234.969	1.11
235.351	0.91
235.733	1.18
236.114	1.09
236.496	1.07
236.877	1.16
237.259	1.15
237.64	0.99
238.022	1.11
238.403	1.04
238.784	1.02
239.165	0.97
239.547	1.07
239.928	1.08
240.309	1.11
240.69	1.06
241.071	1.19
241.452	1.13
241.834	0.98
242.215	1.05
242.595	1.14
242.976	1.14
243.357	1.18
243.738	1.1
244.119	1.23
244.5	1.11
244.881	1.21
245.261	1.12
245.642	1.17
246.023	1.06
246.403	1.08
246.784	1.3
247.164	1.24
247.545	1.45
247.925	1.24
248.306	1.23
248.686	1.31
249.067	1.2
249.447	1.44
249.827	1.53
250.207	1.38
250.588	1.26
250.968	1.46
251.348	1.42
251.728	1.44
252.108	1.42
252.488	1.48
252.868	1.36
253.248	1.31
253.628	1.26
254.008	1.36
254.388	1.34
254.768	1.36
255.147	1.37
255.527	1.39
255.907	1.29
256.287	1.36
256.666	1.36
257.046	1.39
257.425	1.6
257.805	1.28
258.184	1.25
258.564	1.4
258.943	1.35
259.323	1.52
259.702	1.6
260.081	1.42
260.461	1.55
260.84	1.43
261.219	1.59
261.598	1.45
261.977	1.46
262.356	1.36
262.736	1.49
263.115	1.77
263.494	1.4
263.873	1.41
264.251	1.35
264.63	1.62
265.009	1.44
265.388	1.35
265.767	1.37
266.145	1.38
266.524	1.46
266.903	1.52
267.281	1.42
267.66	1.45
268.039	1.52
268.417	1.37
268.796	1.41
269.174	1.38
269.552	1.37
269.931	1.49
270.309	1.46
270.687	1.6
271.066	1.83
271.444	1.42
271.822	1.57
272.2	1.47
272.578	1.36
272.956	1.53
273.334	1.41
273.712	1.36
274.09	1.41
274.468	1.3
274.846	1.27
275.224	1.3
275.602	1.59
275.98	1.66
276.357	1.52
276.735	1.53
277.113	1.4
277.49	1.23
277.868	1.39
278.246	1.49
278.623	1.31
279.001	1.39
279.378	1.41
279.756	1.53
280.133	1.6
280.51	1.41
280.888	1.49
281.265	1.39
281.642	1.51
282.019	1.58
282.396	1.58
282.773	1.42
283.151	1.45
283.528	1.73
283.905	1.48
284.282	1.59
284.659	1.62
285.035	1.34
285.412	1.39
285.789	1.56
286.166	1.43
286.543	1.49
286.919	1.46
287.296	1.45
287.673	1.53
288.049	1.74
288.426	1.73
288.802	1.57
289.179	1.53
289.555	1.72
289.932	1.43
290.308	1.34
290.684	1.28
291.061	1.47
291.437	1.57
291.813	1.41
292.189	1.38
292.565	1.27
292.942	1.41
293.318	1.31
293.694	1.45
294.07	1.31
294.446	1.45
294.822	1.63
295.197	1.46
295.573	1.39
295.949	1.48
296.325	1.39
296.701	1.68
297.076	1.49
297.452	1.74
297.828	1.51
298.203	1.73
298.579	1.54
298.954	1.48
299.33	1.51
299.705	1.57
300.081	1.51
300.456	1.53
300.831	1.49
301.206	1.43
301.582	1.71
301.957	1.47
302.332	1.61
302.707	1.45
303.082	1.51
303.457	1.56
303.832	1.58
304.207	1.37
304.582	1.43
304.957	1.52
305.332	1.63
305.707	1.56
306.082	1.55
306.456	1.67
306.831	1.42
307.206	1.53
307.58	1.5
307.955	1.5
308.33	1.48
308.704	1.64
309.079	1.42
309.453	1.67
309.828	1.5
310.202	1.39
310.576	1.45
310.951	1.59
311.325	1.67
311.699	1.64
312.073	1.37
312.447	1.43
312.821	1.41
313.196	1.63
313.57	1.41
313.944	1.45
314.317	1.44
314.691	1.42
315.065	1.52
315.439	1.55
315.813	1.55
316.187	1.39
316.56	1.55
316.934	1.51
317.308	1.52
317.681	1.69
318.055	1.54
318.428	1.47
318.802	1.59
319.175	1.44
319.549	1.48
319.922	1.33
320.295	1.51
320.669	1.57
321.042	1.57
321.415	1.73
321.788	1.56
322.162	1.4
322.535	1.53
322.908	1.64
323.281	1.52
323.654	1.64
324.027	1.51
324.4	1.59
324.773	1.5
325.145	1.54
325.518	1.55
325.891	1.52
326.264	1.57
326.636	1.42
327.009	1.55
327.382	1.61
327.754	1.55
328.127	1.65
328.499	1.52
328.872	1.52
329.244	1.48
329.616	1.47
329.989	1.6
330.361	1.57
330.733	1.42
331.106	1.58
331.478	1.67
331.85	1.59
332.222	1.5
332.594	1.69
332.966	1.45
333.338	1.58
333.71	1.56
334.082	1.61
334.454	1.51
334.826	1.52
335.197	1.6
335.569	1.51
335.941	1.42
336.312	1.53
336.684	1.54
337.056	1.53
337.427	1.47
337.799	1.7
338.17	1.66
338.542	1.47
338.913	1.55
339.284	1.83
339.656	1.47
340.027	1.62
340.398	1.67
340.769	1.58
341.141	1.79
341.512	1.49
341.883	1.77
342.254	1.53
342.625	1.7
342.996	1.49
343.367	1.51
343.738	1.6
344.108	1.43
344.479	1.65
344.85	1.4
345.221	1.54
345.591	1.34
345.962	1.47
346.333	1.44
346.703	1.32
347.074	1.33
347.444	1.29
347.815	1.45
348.185	1.4
348.556	1.3
348.926	1.35
349.296	1.48
349.666	1.37
350.037	1.31
350.407	1.25
350.777	1.49
351.147	1.4
351.517	1.46
351.887	1.34
352.257	1.44
352.627	1.37
352.997	1.3
353.367	1.36
353.737	1.4
354.106	1.41
354.476	1.32
354.846	1.5
355.216	1.37
355.585	1.41
355.955	1.36
356.324	1.34
356.694	1.35
357.063	1.36
357.433	1.25
357.802	1.3
358.171	1.28
358.541	1.22
358.91	1.31
359.279	1.28
359.648	1.18
360.017	1.23
360.387	1.23
360.756	1.18
361.125	1.22
361.494	1.23
361.863	1.18
362.231	1.15
362.6	1.16
362.969	1.14
363.338	1.14
363.707	1.19
364.075	1.19
364.444	1.04
364.813	1.06
365.181	1.13
365.55	1.06
365.918	1.14
366.287	1.07
366.655	1.15
367.024	1.09
367.392	1.06
367.76	1.02
368.128	1.05
368.497	1.04
368.865	1.02
369.233	1
369.601	1.05
369.969	1.02
370.337	1.04
370.705	1.02
371.073	1
371.441	1
371.809	0.97
372.177	0.99
372.544	0.97
372.912	0.99
373.28	0.96
373.647	0.98
374.015	1.03
374.383	1.04
374.75	0.99
375.118	0.99
375.485	0.98
375.853	1.03
376.22	0.97
376.587	0.93
376.955	0.98
377.322	0.96
377.689	0.95
378.056	0.96
378.423	0.95
378.79	1.02
379.157	0.98
379.524	1.01
379.891	0.96
380.258	1.04
380.625	0.95
380.992	1
381.359	0.98
381.726	0.99
382.092	1
382.459	0.99
382.826	1.02
383.192	1.03
383.559	1.02
383.925	1.03
384.292	1.01
384.658	1.06
385.025	1.03
385.391	1.09
385.757	1.05
386.123	1.04
386.49	1.1
386.856	1.1
387.222	1.09
387.588	1.04
387.954	1.08
388.32	1.1
388.686	1.06
389.052	1.07
389.418	1.09
389.784	1.05
390.15	1.1
390.515	1.04
390.881	1.11
391.247	1.1
391.613	1.13
391.978	1.09
392.344	1.1
392.709	1.05
393.075	1.11
393.44	1.06
393.806	1.11
394.171	1.09
394.536	1.06
394.902	1.17
395.267	1.09
395.632	1.07
395.997	1.09
396.362	1.09
396.727	1.06
397.092	1.1
397.457	1.06
397.822	1.02
398.187	1.04
398.552	1.03
398.917	1.05
399.282	0.98
399.646	0.98
400.011	1.04
400.376	0.95
400.74	0.96
401.105	0.97
401.47	1
401.834	1.01
402.199	0.94
402.563	0.91
402.927	0.92
403.292	0.92
403.656	0.94
404.02	0.96
404.384	0.95
404.749	0.96
405.113	0.94
405.477	0.95
405.841	0.89
406.205	0.87
406.569	0.92
406.933	0.88
407.296	0.92
407.66	0.87
408.024	0.87
408.388	0.9
408.752	0.86
409.115	0.87
409.479	0.86
409.842	0.86
410.206	0.8
410.569	0.84
410.933	0.85
411.296	0.81
411.66	0.81
412.023	0.77
412.386	0.82
412.749	0.79
413.113	0.84
413.476	0.77
413.839	0.77
414.202	0.77
414.565	0.77
414.928	0.79
415.291	0.75
415.654	0.78
416.017	0.77
416.38	0.71
416.742	0.73
417.105	0.7
417.468	0.75
417.83	0.74
418.193	0.74
418.556	0.72
418.918	0.72
419.281	0.7
419.643	0.74
420.005	0.72
420.368	0.74
420.73	0.7
421.092	0.72
421.455	0.73
421.817	0.67
422.179	0.71
422.541	0.73
422.903	0.72
423.265	0.69
423.627	0.71
423.989	0.67
424.351	0.69
424.713	0.69
425.075	0.7
425.436	0.69
425.798	0.68
426.16	0.7
426.521	0.66
426.883	0.67
427.245	0.66
427.606	0.67
427.967	0.66
428.329	0.66
428.69	0.68
429.052	0.68
429.413	0.67
429.774	0.65
430.135	0.67
430.497	0.67
430.858	0.66
431.219	0.65
431.58	0.65
431.941	0.65
432.302	0.62
432.663	0.64
433.024	0.66
433.384	0.67
433.745	0.64
434.106	0.64
434.467	0.63
434.827	0.65
435.188	0.63
435.548	0.64
435.909	0.61
436.269	0.63
436.63	0.62
436.99	0.62
437.351	0.61
437.711	0.6
438.071	0.61
438.431	0.62
438.792	0.59
439.152	0.61
439.512	0.58
439.872	0.61
440.232	0.61
440.592	0.6
440.952	0.59
441.312	0.58
441.671	0.58
442.031	0.58
442.391	0.56
442.751	0.58
443.11	0.57
443.47	0.56
443.83	0.56
444.189	0.56
444.549	0.56
444.908	0.56
445.267	0.54
445.627	0.55
445.986	0.54
446.345	0.52
446.705	0.54
447.064	0.53
447.423	0.54
447.782	0.54
448.141	0.53
448.5	0.5
448.859	0.52
449.218	0.51
449.577	0.53
449.936	0.52
450.295	0.52
450.653	0.51
451.012	0.51
451.371	0.51
451.729	0.5
452.088	0.51
452.447	0.49
452.805	0.5
453.163	0.49
453.522	0.48
453.88	0.48
454.239	0.48
454.597	0.48
454.955	0.48
455.313	0.47
455.671	0.47
456.029	0.46
456.388	0.45
456.746	0.46
457.104	0.45
457.461	0.44
457.819	0.44
458.177	0.43
458.535	0.43
458.893	0.42
459.25	0.42
459.608	0.42
459.966	0.41
460.323	0.4
460.681	0.39
461.038	0.4
461.396	0.4
461.753	0.39
462.111	0.38
462.468	0.37
462.825	0.38
463.182	0.37
463.54	0.37
463.897	0.37
464.254	0.37
464.611	0.37
464.968	0.36
465.325	0.36
465.682	0.36
466.039	0.34
466.395	0.34
466.752	0.34
467.109	0.33
467.466	0.34
467.822	0.34
468.179	0.32
468.535	0.32
468.892	0.32
469.248	0.31
469.605	0.32
469.961	0.31
470.318	0.32
470.674	0.31
471.03	0.31
471.386	0.3
471.743	0.29
472.099	0.3
472.455	0.3
472.811	0.28
473.167	0.28
473.523	0.27
473.879	0.27
474.235	0.26
474.59	0.26
474.946	0.27
475.302	0.26
475.657	0.25
476.013	0.26
476.369	0.25
476.724	0.25
477.08	0.25
477.435	0.24
477.791	0.24
478.146	0.24
478.501	0.24
478.857	0.23
479.212	0.24
479.567	0.23
479.922	0.22
480.277	0.22
480.632	0.22
480.987	0.22
481.342	0.22
481.697	0.21
482.052	0.21
482.407	0.21
482.762	0.21
483.116	0.2
483.471	0.19
483.826	0.19
484.18	0.2
484.535	0.19
484.89	0.19
485.244	0.19
485.598	0.19
485.953	0.19
486.307	0.19
486.661	0.19
487.016	0.18
487.37	0.18
487.724	0.18
488.078	0.18
488.432	0.18
488.786	0.17
489.14	0.17
489.494	0.17
489.848	0.17
490.202	0.16
490.556	0.16
490.91	0.17
491.263	0.16
491.617	0.16
491.971	0.16
492.324	0.16
492.678	0.16
493.031	0.17
493.385	0.16
493.738	0.16
494.091	0.16
494.445	0.16
494.798	0.15
495.151	0.15
495.504	0.15
495.857	0.15
496.21	0.15
496.564	0.14
496.916	0.16
497.269	0.14
497.622	0.15
497.975	0.15
498.328	0.15
498.681	0.15
499.033	0.15
499.386	0.14
499.739	0.14
500.091	0.14
500.444	0.14
500.796	0.14
501.149	0.14
501.501	0.13
501.854	0.14
502.206	0.14
502.558	0.14
502.91	0.14
503.263	0.13
503.615	0.13
503.967	0.13
504.319	0.14
504.671	0.13
505.023	0.13
505.375	0.13
505.726	0.13
506.078	0.13
506.43	0.13
506.782	0.13
507.133	0.12
507.485	0.13
507.837	0.13
508.188	0.12
508.54	0.13
508.891	0.13
509.243	0.12
509.594	0.13
509.945	0.13
510.296	0.12
510.648	0.13
510.999	0.12
511.35	0.13
511.701	0.12
512.052	0.13
512.403	0.13
512.754	0.13
513.105	0.12
513.456	0.13
513.807	0.12
514.157	0.13
514.508	0.12
514.859	0.12
515.209	0.12
515.56	0.12
515.91	0.11
516.261	0.12
516.611	0.11
516.962	0.11
517.312	0.11
517.662	0.12
518.013	0.12
518.363	0.12
518.713	0.12
519.063	0.12
519.413	0.12
519.763	0.12
520.113	0.12
520.463	0.12
520.813	0.13
521.163	0.12
521.512	0.12
521.862	0.12
522.212	0.13
522.562	0.13
522.911	0.12
523.261	0.12
523.61	0.13
523.96	0.12
524.309	0.12
524.658	0.12
525.008	0.12
525.357	0.11
525.706	0.12
526.056	0.12
526.405	0.12
526.754	0.12
527.103	0.12
527.452	0.12
527.801	0.12
528.15	0.12
528.499	0.12
528.847	0.12
529.196	0.13
529.545	0.13
529.893	0.13
530.242	0.13
530.591	0.13
530.939	0.13
531.288	0.13
531.636	0.13
531.985	0.13
532.333	0.13
532.681	0.14
533.029	0.13
533.378	0.13
533.726	0.13
534.074	0.14
534.422	0.12
534.77	0.13
535.118	0.13
535.466	0.12
535.814	0.13
536.162	0.13
536.509	0.13
536.857	0.13
537.205	0.14
537.552	0.13
537.9	0.13
538.248	0.12
538.595	0.14
538.943	0.13
539.29	0.13
539.637	0.13
539.985	0.13
540.332	0.12
540.679	0.13
541.026	0.11
541.373	0.13
541.721	0.12
542.068	0.12
542.415	0.13
542.762	0.12
543.108	0.11
543.455	0.11
543.802	0.11
544.149	0.11
544.496	0.12
544.842	0.12
545.189	0.11
545.535	0.11
545.882	0.12
546.228	0.12
546.575	0.11
546.921	0.11
547.267	0.11
547.614	0.11
547.96	0.11
548.306	0.11
548.652	0.11
548.998	0.12
549.344	0.11
549.69	0.12
550.036	0.11
550.382	0.12
550.728	0.12
551.074	0.12
551.42	0.12
551.765	0.12
552.111	0.13
552.457	0.13
552.802	0.12
553.148	0.13
553.493	0.12
553.839	0.13
554.184	0.12
554.529	0.12
554.875	0.13
555.22	0.13
555.565	0.12
555.91	0.13
556.255	0.13
556.6	0.13
556.945	0.12
557.29	0.13
557.635	0.13
557.98	0.13
558.325	0.13
558.67	0.12
559.014	0.13
559.359	0.13
559.704	0.13
560.048	0.12
560.393	0.12
560.737	0.11
561.082	0.12
561.426	0.11
561.77	0.13
562.115	0.12
562.459	0.12
562.803	0.12
563.147	0.12
563.491	0.12
563.835	0.12
564.179	0.12
564.523	0.12
564.867	0.12
565.211	0.12
565.555	0.12
565.899	0.14
566.242	0.12
566.586	0.11
566.93	0.13
567.273	0.13
567.617	0.12
567.96	0.13
568.304	0.13
568.647	0.13
568.99	0.12
569.334	0.14
569.677	0.13
570.02	0.13
570.363	0.13
570.706	0.12
571.049	0.13
571.392	0.13
571.735	0.12
572.078	0.13
572.421	0.13
572.764	0.12
573.106	0.12
573.449	0.11
573.792	0.12
574.134	0.13
574.477	0.12
574.819	0.12
575.162	0.13
575.504	0.13
575.847	0.13
576.189	0.12
576.531	0.13
576.873	0.12
577.215	0.13
577.558	0.13
577.9	0.12
578.242	0.12
578.584	0.13
578.926	0.13
579.267	0.13
579.609	0.13
579.951	0.13
580.293	0.13
580.634	0.13
580.976	0.13
581.318	0.13
581.659	0.12
582.001	0.13
582.342	0.13
582.683	0.13
583.025	0.12
583.366	0.12
583.707	0.12
584.049	0.12
584.39	0.12
584.731	0.12
585.072	0.11
585.413	0.13
585.754	0.13
586.095	0.13
586.435	0.13
586.776	0.13
587.117	0.12
587.458	0.12
587.798	0.13
588.139	0.12
588.48	0.12
588.82	0.12
589.161	0.12
589.501	0.11
589.841	0.12
590.182	0.12
590.522	0.12
590.862	0.12
591.202	0.12
591.542	0.12
591.882	0.12
592.222	0.12
592.562	0.11
592.902	0.12
593.242	0.11
593.582	0.13
593.922	0.11
594.261	0.12
594.601	0.13
594.941	0.12
595.28	0.12
595.62	0.12
595.959	0.12
596.299	0.12
596.638	0.11
596.977	0.13
597.317	0.13
597.656	0.12
597.995	0.12
598.334	0.13
598.673	0.12
599.012	0.11
599.351	0.12
599.69	0.12
600.029	0.12
600.368	0.12
600.707	0.13
601.046	0.12
601.384	0.12
601.723	0.13
602.061	0.12
602.4	0.12
602.738	0.12
603.077	0.12
603.415	0.12
603.754	0.13
604.092	0.12
604.43	0.12
604.768	0.12
605.107	0.12
605.445	0.12
605.783	0.12
606.121	0.12
606.459	0.12
606.796	0.13
607.134	0.12
607.472	0.12
607.81	0.13
608.148	0.12
608.485	0.13
608.823	0.12
609.16	0.11
609.498	0.12
609.835	0.12
610.173	0.12
610.51	0.12
610.847	0.13
611.185	0.12
611.522	0.12
611.859	0.13
612.196	0.13
612.533	0.13
612.87	0.13
613.207	0.13
613.544	0.13
613.881	0.13
614.217	0.13
614.554	0.13
614.891	0.13
615.228	0.13
615.564	0.13
615.901	0.13
616.237	0.13
616.574	0.12
616.91	0.13
617.246	0.13
617.583	0.13
617.919	0.13
618.255	0.13
618.591	0.12
618.927	0.13
619.263	0.13
619.599	0.13
619.935	0.13
620.271	0.14
620.607	0.13
620.943	0.13
621.279	0.14
621.614	0.13
621.95	0.13
622.286	0.12
622.621	0.12
622.957	0.12
623.292	0.12
623.627	0.12
623.963	0.12
624.298	0.12
624.633	0.12
624.968	0.12
625.304	0.12
625.639	0.12
625.974	0.12
626.309	0.11
626.644	0.11
626.979	0.12
627.313	0.11
627.648	0.11
627.983	0.12
628.318	0.11
628.652	0.11
628.987	0.11
629.321	0.11
629.656	0.11
629.99	0.11
630.325	0.12
630.659	0.11
630.993	0.11
631.327	0.12
631.662	0.11
631.996	0.11
632.33	0.12
632.664	0.12
632.998	0.11
633.332	0.11
633.666	0.11
633.999	0.12
634.333	0.11
634.667	0.11
635.001	0.11
635.334	0.11
635.668	0.11
636.001	0.11
636.335	0.11
636.668	0.11
637.001	0.1
637.335	0.11
637.668	0.1
638.001	0.11
638.334	0.11
638.668	0.11
639.001	0.1
639.334	0.1
639.667	0.1
639.999	0.1
640.332	0.1
640.665	0.1
640.998	0.1
641.331	0.09
641.663	0.1
641.996	0.09
642.328	0.1
642.661	0.1
642.993	0.1
643.326	0.1
643.658	0.1
643.99	0.1
644.323	0.1
644.655	0.1
644.987	0.1
645.319	0.1
645.651	0.1
645.983	0.1
646.315	0.09
646.647	0.11
646.979	0.11
647.31	0.11
647.642	0.11
647.974	0.1
648.305	0.11
648.637	0.11
648.968	0.11
649.3	0.11
649.631	0.11
649.963	0.11
650.294	0.11
650.625	0.11
650.957	0.11
651.288	0.11
651.619	0.11
651.95	0.11
652.281	0.11
652.612	0.11
652.943	0.11
653.274	0.12
653.604	0.11
653.935	0.11
654.266	0.11
654.596	0.1
654.927	0.1
655.258	0.11
655.588	0.11
655.918	0.11
656.249	0.09
656.579	0.11
656.909	0.1
657.24	0.1
657.57	0.11
657.9	0.11
658.23	0.11
658.56	0.11
658.89	0.11
659.22	0.11
659.55	0.11
659.88	0.11
660.209	0.11
660.539	0.12
660.869	0.11
661.198	0.11
661.528	0.11
661.857	0.12
662.187	0.11
662.516	0.11
662.846	0.11
663.175	0.11
663.504	0.11
663.833	0.11
664.163	0.11
664.492	0.1
664.821	0.1
665.15	0.1
665.479	0.11
665.807	0.11
666.136	0.1
666.465	0.1
666.794	0.1
667.122	0.1
667.451	0.1
667.78	0.1
668.108	0.1
668.437	0.1
668.765	0.1
669.093	0.11
669.422	0.1
669.75	0.1
670.078	0.1
670.406	0.1
670.734	0.11
671.062	0.11
671.39	0.1
671.718	0.11
672.046	0.1
672.374	0.1
672.702	0.1
673.029	0.1
673.357	0.11
673.685	0.11
674.012	0.1
674.34	0.1
674.667	0.1
674.995	0.11
675.322	0.11
675.649	0.1
675.977	0.11
676.304	0.11
676.631	0.1
676.958	0.1
677.285	0.09
677.612	0.1
677.939	0.1
678.266	0.1
678.593	0.1
678.92	0.1
679.246	0.09
679.573	0.1
679.9	0.09
680.226	0.1
680.553	0.09
680.879	0.1
681.206	0.09
681.532	0.09
681.858	0.09
682.184	0.08
682.511	0.09
682.837	0.09
683.163	0.09
683.489	0.09
683.815	0.09
684.141	0.09
684.467	0.09
684.793	0.08
685.118	0.09
685.444	0.09
685.77	0.09
686.095	0.09
686.421	0.08
686.746	0.1
687.072	0.1
687.397	0.09
687.723	0.1
688.048	0.1
688.373	0.09
688.698	0.09
689.023	0.1
689.349	0.09
689.674	0.1
689.999	0.09
690.323	0.09
690.648	0.08
690.973	0.08
691.298	0.09
691.623	0.09
691.947	0.09
692.272	0.08
692.596	0.09
692.921	0.08
693.245	0.08
693.57	0.08
693.894	0.09
694.218	0.08
694.543	0.08
694.867	0.08
695.191	0.08
695.515	0.08
695.839	0.08
696.163	0.08
696.487	0.08
696.811	0.09
697.135	0.09
697.458	0.08
697.782	0.08
698.106	0.08
698.429	0.08
698.753	0.08
699.076	0.08
699.4	0.08
699.723	0.08
700.046	0.08
700.37	0.08
700.693	0.08
701.016	0.08
701.339	0.09
701.662	0.09
701.985	0.09
702.308	0.07
702.631	0.08
702.954	0.09
703.277	0.08
703.599	0.08
703.922	0.07
704.245	0.07
704.567	0.07
704.89	0.07
705.212	0.08
705.535	0.08
705.857	0.07
706.179	0.07
706.502	0.07
706.824	0.07
707.146	0.07
707.468	0.08
707.79	0.08
708.112	0.07
708.434	0.08
708.756	0.08
709.078	0.08
709.399	0.07
709.721	0.07
710.043	0.08
710.364	0.07
710.686	0.08
711.007	0.08
711.329	0.08
711.65	0.08
711.972	0.07
712.293	0.08
712.614	0.08
712.935	0.07
713.256	0.08
713.577	0.08
713.898	0.07
714.219	0.08
714.54	0.06
714.861	0.07
715.182	0.07
715.503	0.07
715.823	0.07
716.144	0.06
716.464	0.06
716.785	0.06
717.105	0.06
717.426	0.07
717.746	0.07
718.066	0.06
718.387	0.06
718.707	0.06
719.027	0.07
719.347	0.06
719.667	0.06
719.987	0.05
720.307	0.06
720.627	0.06
720.947	0.06
721.266	0.05
721.586	0.05
721.906	0.05
722.225	0.04
722.545	0.06
722.864	0.05
723.184	0.06
723.503	0.05
723.823	0.06
724.142	0.05
