Data from 12-12-AQDScycling_Absorbance__541__00541.txt Node

Date: Tue Dec 12 13:11:59 EST 2023
User: kyuminlee
Spectrometer: FLMS00943
Trigger mode: 0
Integration Time (sec): 1.000000E-1
Scans to average: 1
Electric dark correction enabled: true
Nonlinearity correction enabled: false
Boxcar width: 0
XAxis mode: Wavelengths
Number of Pixels in Spectrum: 2048
>>>>>Begin Spectral Data<<<<<
179.651	-0
180.037	-0
180.424	-0
180.81	-0
181.197	1.95
181.583	-0
181.97	0.29
182.356	-0
182.743	-0.86
183.129	-0
183.515	-0
183.901	-2.79
184.288	0.37
184.674	-0
185.06	-0.97
185.446	-0
185.832	-0
186.218	-0.04
186.604	0.52
186.99	0.9
187.376	-0
187.762	-0.37
188.148	1.46
188.534	-0.02
188.92	0.09
189.305	-0.01
189.691	0.18
190.077	0.25
190.463	0.16
190.848	0.11
191.234	0.15
191.619	0.05
192.005	0.08
192.391	0.22
192.776	0.12
193.161	0.07
193.547	0.15
193.932	-0.02
194.318	0.05
194.703	0.15
195.088	0.38
195.473	0.19
195.859	0.11
196.244	0.24
196.629	-0.01
197.014	0.15
197.399	0.13
197.784	0.1
198.169	0.19
198.554	0.21
198.939	0.2
199.324	0.18
199.709	0.1
200.094	0.07
200.478	0.15
200.863	0.11
201.248	0.17
201.633	0.27
202.017	0.16
202.402	0.26
202.787	0.16
203.171	0.08
203.556	0.3
203.94	0.11
204.325	0.2
204.709	0.21
205.093	-0.08
205.478	0.07
205.862	0.2
206.246	0.31
206.631	0.19
207.015	0.23
207.399	0.21
207.783	0.27
208.167	0.27
208.551	0.24
208.935	0.13
209.319	0.19
209.703	0.26
210.087	0.24
210.471	0.17
210.855	0.37
211.239	0.23
211.623	0.21
212.007	0.3
212.39	0.46
212.774	0.14
213.158	0.19
213.541	0.33
213.925	0.27
214.309	0.19
214.692	0.41
215.076	0.2
215.459	0.28
215.842	0.18
216.226	0.29
216.609	0.31
216.993	0.27
217.376	0.51
217.759	0.2
218.142	0.23
218.525	0.39
218.909	0.6
219.292	0.43
219.675	0.36
220.058	0.51
220.441	0.5
220.824	0.55
221.207	0.53
221.59	0.48
221.973	0.67
222.355	0.69
222.738	0.66
223.121	0.59
223.504	0.53
223.886	0.66
224.269	0.68
224.652	0.64
225.034	0.74
225.417	0.72
225.799	0.74
226.182	0.95
226.564	0.88
226.947	0.77
227.329	0.83
227.711	0.82
228.094	0.99
228.476	0.77
228.858	0.82
229.24	0.74
229.623	0.87
230.005	0.88
230.387	0.88
230.769	0.87
231.151	0.92
231.533	0.92
231.915	1.05
232.297	1.01
232.679	0.97
233.061	1.04
233.442	1.02
233.824	1.03
234.206	1.09
234.588	1.06
234.969	1.1
235.351	1.08
235.733	1.05
236.114	1.27
236.496	1.1
236.877	1.12
237.259	1.15
237.64	1.08
238.022	0.97
238.403	1.07
238.784	1.05
239.165	0.99
239.547	1.04
239.928	1.1
240.309	0.99
240.69	1.04
241.071	1.1
241.452	1.12
241.834	1.16
242.215	1.26
242.595	1.07
242.976	1.16
243.357	1.1
243.738	0.96
244.119	1.2
244.5	1.25
244.881	1.35
245.261	1.15
245.642	1.13
246.023	1.18
246.403	1.11
246.784	1.19
247.164	1.17
247.545	1.25
247.925	1.34
248.306	1.21
248.686	1.26
249.067	1.28
249.447	1.46
249.827	1.5
250.207	1.54
250.588	1.29
250.968	1.55
251.348	1.31
251.728	1.53
252.108	1.4
252.488	1.64
252.868	1.31
253.248	1.4
253.628	1.42
254.008	1.44
254.388	1.39
254.768	1.44
255.147	1.33
255.527	1.39
255.907	1.34
256.287	1.41
256.666	1.56
257.046	1.43
257.425	1.36
257.805	1.42
258.184	1.27
258.564	1.42
258.943	1.28
259.323	1.5
259.702	1.53
260.081	1.5
260.461	1.48
260.84	1.42
261.219	1.59
261.598	1.49
261.977	1.37
262.356	1.47
262.736	1.45
263.115	1.95
263.494	1.44
263.873	1.41
264.251	1.47
264.63	1.52
265.009	1.37
265.388	1.39
265.767	1.28
266.145	1.43
266.524	1.43
266.903	1.53
267.281	1.35
267.66	1.53
268.039	1.47
268.417	1.37
268.796	1.43
269.174	1.43
269.552	1.25
269.931	1.57
270.309	1.35
270.687	1.6
271.066	1.81
271.444	1.33
271.822	1.47
272.2	1.44
272.578	1.39
272.956	1.51
273.334	1.37
273.712	1.49
274.09	1.36
274.468	1.48
274.846	1.39
275.224	1.39
275.602	1.46
275.98	1.54
276.357	1.52
276.735	1.71
277.113	1.5
277.49	1.33
277.868	1.39
278.246	1.5
278.623	1.42
279.001	1.33
279.378	1.55
279.756	1.42
280.133	1.46
280.51	1.34
280.888	1.5
281.265	1.34
281.642	1.51
282.019	1.69
282.396	1.84
282.773	1.47
283.151	1.4
283.528	1.56
283.905	1.45
284.282	1.56
284.659	1.54
285.035	1.41
285.412	1.36
285.789	1.5
286.166	1.56
286.543	1.51
286.919	1.5
287.296	1.43
287.673	1.64
288.049	1.61
288.426	1.52
288.802	1.45
289.179	1.41
289.555	1.82
289.932	1.56
290.308	1.29
290.684	1.3
291.061	1.36
291.437	1.7
291.813	1.45
292.189	1.4
292.565	1.34
292.942	1.36
293.318	1.37
293.694	1.52
294.07	1.37
294.446	1.36
294.822	1.63
295.197	1.49
295.573	1.52
295.949	1.37
296.325	1.38
296.701	1.5
297.076	1.63
297.452	1.71
297.828	1.36
298.203	1.7
298.579	1.41
298.954	1.41
299.33	1.41
299.705	1.48
300.081	1.52
300.456	1.46
300.831	1.33
301.206	1.37
301.582	1.53
301.957	1.36
302.332	1.44
302.707	1.31
303.082	1.4
303.457	1.41
303.832	1.29
304.207	1.29
304.582	1.28
304.957	1.31
305.332	1.39
305.707	1.28
306.082	1.33
306.456	1.33
306.831	1.29
307.206	1.26
307.58	1.25
307.955	1.31
308.33	1.25
308.704	1.26
309.079	1.24
309.453	1.33
309.828	1.25
310.202	1.26
310.576	1.16
310.951	1.29
311.325	1.29
311.699	1.16
312.073	1.2
312.447	1.16
312.821	1.17
313.196	1.21
313.57	1.13
313.944	1.16
314.317	1.09
314.691	1.25
315.065	1.2
315.439	1.18
315.813	1.22
316.187	1.19
316.56	1.2
316.934	1.19
317.308	1.13
317.681	1.2
318.055	1.19
318.428	1.25
318.802	1.17
319.175	1.15
319.549	1.22
319.922	1.1
320.295	1.17
320.669	1.14
321.042	1.19
321.415	1.19
321.788	1.11
322.162	1.18
322.535	1.26
322.908	1.2
323.281	1.16
323.654	1.23
324.027	1.19
324.4	1.18
324.773	1.24
325.145	1.28
325.518	1.14
325.891	1.2
326.264	1.25
326.636	1.19
327.009	1.18
327.382	1.24
327.754	1.26
328.127	1.16
328.499	1.16
328.872	1.2
329.244	1.28
329.616	1.18
329.989	1.15
330.361	1.15
330.733	1.19
331.106	1.19
331.478	1.23
331.85	1.24
332.222	1.19
332.594	1.3
332.966	1.3
333.338	1.34
333.71	1.37
334.082	1.41
334.454	1.31
334.826	1.26
335.197	1.25
335.569	1.26
335.941	1.23
336.312	1.26
336.684	1.3
337.056	1.26
337.427	1.34
337.799	1.29
338.17	1.29
338.542	1.26
338.913	1.27
339.284	1.42
339.656	1.29
340.027	1.32
340.398	1.39
340.769	1.28
341.141	1.49
341.512	1.32
341.883	1.3
342.254	1.31
342.625	1.28
342.996	1.31
343.367	1.26
343.738	1.36
344.108	1.21
344.479	1.36
344.85	1.26
345.221	1.49
345.591	1.28
345.962	1.36
346.333	1.32
346.703	1.2
347.074	1.25
347.444	1.25
347.815	1.3
348.185	1.29
348.556	1.31
348.926	1.22
349.296	1.35
349.666	1.34
350.037	1.26
350.407	1.16
350.777	1.35
351.147	1.38
351.517	1.38
351.887	1.28
352.257	1.26
352.627	1.26
352.997	1.27
353.367	1.39
353.737	1.33
354.106	1.43
354.476	1.38
354.846	1.37
355.216	1.37
355.585	1.45
355.955	1.3
356.324	1.49
356.694	1.36
357.063	1.41
357.433	1.38
357.802	1.42
358.171	1.44
358.541	1.4
358.91	1.51
359.279	1.39
359.648	1.45
360.017	1.39
360.387	1.42
360.756	1.42
361.125	1.41
361.494	1.61
361.863	1.43
362.231	1.53
362.6	1.6
362.969	1.48
363.338	1.41
363.707	1.54
364.075	1.52
364.444	1.39
364.813	1.45
365.181	1.45
365.55	1.53
365.918	1.52
366.287	1.54
366.655	1.64
367.024	1.64
367.392	1.52
367.76	1.37
368.128	1.52
368.497	1.55
368.865	1.47
369.233	1.54
369.601	1.44
369.969	1.47
370.337	1.59
370.705	1.66
371.073	1.5
371.441	1.49
371.809	1.44
372.177	1.45
372.544	1.6
372.912	1.57
373.28	1.63
373.647	1.51
374.015	1.72
374.383	1.71
374.75	1.72
375.118	1.6
375.485	1.64
375.853	1.79
376.22	1.64
376.587	1.52
376.955	1.75
377.322	1.66
377.689	1.55
378.056	1.57
378.423	1.49
378.79	1.71
379.157	1.53
379.524	1.54
379.891	1.51
380.258	1.71
380.625	1.55
380.992	1.54
381.359	1.56
381.726	1.71
382.092	1.56
382.459	1.55
382.826	1.77
383.192	1.76
383.559	1.39
383.925	1.7
384.292	1.58
384.658	1.63
385.025	1.53
385.391	1.64
385.757	1.56
386.123	1.61
386.49	1.53
386.856	1.58
387.222	1.58
387.588	1.53
387.954	1.69
388.32	1.73
388.686	1.62
389.052	1.56
389.418	1.64
389.784	1.57
390.15	1.7
390.515	1.42
390.881	1.83
391.247	1.51
391.613	1.63
391.978	1.51
392.344	1.66
392.709	1.55
393.075	1.59
393.44	1.66
393.806	1.65
394.171	1.5
394.536	1.53
394.902	1.57
395.267	1.52
395.632	1.37
395.997	1.49
396.362	1.44
396.727	1.42
397.092	1.56
397.457	1.58
397.822	1.47
398.187	1.66
398.552	1.6
398.917	1.7
399.282	1.47
399.646	1.6
400.011	1.63
400.376	1.54
400.74	1.53
401.105	1.45
401.47	1.61
401.834	1.6
402.199	1.63
402.563	1.47
402.927	1.56
403.292	1.64
403.656	1.58
404.02	1.63
404.384	1.76
404.749	1.59
405.113	1.6
405.477	1.74
405.841	1.57
406.205	1.64
406.569	1.59
406.933	1.51
407.296	1.51
407.66	1.56
408.024	1.54
408.388	1.68
408.752	1.6
409.115	1.67
409.479	1.56
409.842	1.67
410.206	1.51
410.569	1.59
410.933	1.51
411.296	1.38
411.66	1.57
412.023	1.46
412.386	1.57
412.749	1.46
413.113	1.63
413.476	1.46
413.839	1.43
414.202	1.39
414.565	1.39
414.928	1.48
415.291	1.44
415.654	1.42
416.017	1.49
416.38	1.6
416.742	1.45
417.105	1.5
417.468	1.38
417.83	1.44
418.193	1.49
418.556	1.41
418.918	1.33
419.281	1.36
419.643	1.42
420.005	1.4
420.368	1.47
420.73	1.46
421.092	1.54
421.455	1.66
421.817	1.42
422.179	1.46
422.541	1.42
422.903	1.53
423.265	1.6
423.627	1.39
423.989	1.54
424.351	1.42
424.713	1.41
425.075	1.48
425.436	1.43
425.798	1.38
426.16	1.54
426.521	1.54
426.883	1.49
427.245	1.5
427.606	1.46
427.967	1.34
428.329	1.37
428.69	1.57
429.052	1.37
429.413	1.42
429.774	1.51
430.135	1.42
430.497	1.57
430.858	1.39
431.219	1.51
431.58	1.39
431.941	1.36
432.302	1.38
432.663	1.44
433.024	1.51
433.384	1.51
433.745	1.38
434.106	1.43
434.467	1.41
434.827	1.42
435.188	1.41
435.548	1.45
435.909	1.33
436.269	1.49
436.63	1.37
436.99	1.31
437.351	1.31
437.711	1.41
438.071	1.27
438.431	1.38
438.792	1.35
439.152	1.37
439.512	1.35
439.872	1.32
440.232	1.32
440.592	1.32
440.952	1.31
441.312	1.31
441.671	1.3
442.031	1.24
442.391	1.25
442.751	1.3
443.11	1.3
443.47	1.21
443.83	1.24
444.189	1.21
444.549	1.23
444.908	1.22
445.267	1.24
445.627	1.23
445.986	1.19
446.345	1.19
446.705	1.18
447.064	1.19
447.423	1.18
447.782	1.14
448.141	1.2
448.5	1.13
448.859	1.12
449.218	1.12
449.577	1.17
449.936	1.12
450.295	1.13
450.653	1.09
451.012	1.14
451.371	1.11
451.729	1.13
452.088	1.1
452.447	1.09
452.805	1.09
453.163	1.07
453.522	1.09
453.88	1.07
454.239	1.07
454.597	1.04
454.955	1
455.313	1.03
455.671	1
456.029	0.99
456.388	0.98
456.746	0.99
457.104	0.97
457.461	0.96
457.819	0.96
458.177	0.92
458.535	0.91
458.893	0.92
459.25	0.91
459.608	0.89
459.966	0.88
460.323	0.86
460.681	0.84
461.038	0.86
461.396	0.83
461.753	0.83
462.111	0.83
462.468	0.79
462.825	0.77
463.182	0.77
463.54	0.76
463.897	0.77
464.254	0.77
464.611	0.76
464.968	0.73
465.325	0.72
465.682	0.71
466.039	0.7
466.395	0.71
466.752	0.7
467.109	0.67
467.466	0.67
467.822	0.68
468.179	0.65
468.535	0.65
468.892	0.63
469.248	0.62
469.605	0.62
469.961	0.62
470.318	0.62
470.674	0.59
471.03	0.58
471.386	0.57
471.743	0.55
472.099	0.56
472.455	0.54
472.811	0.54
473.167	0.54
473.523	0.53
473.879	0.52
474.235	0.51
474.59	0.5
474.946	0.49
475.302	0.48
475.657	0.47
476.013	0.47
476.369	0.47
476.724	0.46
477.08	0.46
477.435	0.45
477.791	0.44
478.146	0.43
478.501	0.42
478.857	0.42
479.212	0.41
479.567	0.41
479.922	0.39
480.277	0.39
480.632	0.39
480.987	0.38
481.342	0.37
481.697	0.36
482.052	0.36
482.407	0.35
482.762	0.35
483.116	0.34
483.471	0.34
483.826	0.33
484.18	0.32
484.535	0.32
484.89	0.32
485.244	0.32
485.598	0.31
485.953	0.31
486.307	0.3
486.661	0.3
487.016	0.29
487.37	0.28
487.724	0.29
488.078	0.28
488.432	0.28
488.786	0.28
489.14	0.27
489.494	0.26
489.848	0.26
490.202	0.26
490.556	0.26
490.91	0.25
491.263	0.24
491.617	0.25
491.971	0.25
492.324	0.24
492.678	0.24
493.031	0.24
493.385	0.24
493.738	0.24
494.091	0.23
494.445	0.23
494.798	0.22
495.151	0.22
495.504	0.22
495.857	0.21
496.21	0.22
496.564	0.21
496.916	0.21
497.269	0.2
497.622	0.2
497.975	0.2
498.328	0.2
498.681	0.2
499.033	0.19
499.386	0.19
499.739	0.19
500.091	0.2
500.444	0.19
500.796	0.19
501.149	0.18
501.501	0.19
501.854	0.19
502.206	0.18
502.558	0.18
502.91	0.18
503.263	0.18
503.615	0.18
503.967	0.18
504.319	0.18
504.671	0.18
505.023	0.17
505.375	0.17
505.726	0.17
506.078	0.17
506.43	0.17
506.782	0.17
507.133	0.17
507.485	0.17
507.837	0.17
508.188	0.17
508.54	0.17
508.891	0.18
509.243	0.16
509.594	0.16
509.945	0.16
510.296	0.16
510.648	0.17
510.999	0.15
511.35	0.16
511.701	0.16
512.052	0.17
512.403	0.17
512.754	0.16
513.105	0.15
513.456	0.16
513.807	0.16
514.157	0.16
514.508	0.15
514.859	0.15
515.209	0.16
515.56	0.16
515.91	0.15
516.261	0.16
516.611	0.16
516.962	0.16
517.312	0.16
517.662	0.16
518.013	0.16
518.363	0.16
518.713	0.16
519.063	0.15
519.413	0.16
519.763	0.15
520.113	0.15
520.463	0.16
520.813	0.16
521.163	0.15
521.512	0.16
521.862	0.16
522.212	0.16
522.562	0.15
522.911	0.16
523.261	0.15
523.61	0.16
523.96	0.15
524.309	0.16
524.658	0.16
525.008	0.15
525.357	0.15
525.706	0.16
526.056	0.15
526.405	0.15
526.754	0.15
527.103	0.15
527.452	0.16
527.801	0.16
528.15	0.16
528.499	0.15
528.847	0.15
529.196	0.16
529.545	0.16
529.893	0.16
530.242	0.16
530.591	0.16
530.939	0.17
531.288	0.16
531.636	0.16
531.985	0.16
532.333	0.16
532.681	0.16
533.029	0.16
533.378	0.16
533.726	0.16
534.074	0.17
534.422	0.16
534.77	0.17
535.118	0.16
535.466	0.16
535.814	0.16
536.162	0.16
536.509	0.17
536.857	0.16
537.205	0.16
537.552	0.16
537.9	0.17
538.248	0.15
538.595	0.16
538.943	0.16
539.29	0.16
539.637	0.16
539.985	0.17
540.332	0.16
540.679	0.16
541.026	0.15
541.373	0.16
541.721	0.15
542.068	0.16
542.415	0.16
542.762	0.16
543.108	0.15
543.455	0.14
543.802	0.16
544.149	0.15
544.496	0.15
544.842	0.15
545.189	0.15
545.535	0.15
545.882	0.15
546.228	0.15
546.575	0.14
546.921	0.15
547.267	0.15
547.614	0.15
547.96	0.15
548.306	0.14
548.652	0.15
548.998	0.16
549.344	0.15
549.69	0.15
550.036	0.15
550.382	0.15
550.728	0.15
551.074	0.15
551.42	0.15
551.765	0.15
552.111	0.16
552.457	0.16
552.802	0.16
553.148	0.15
553.493	0.15
553.839	0.15
554.184	0.16
554.529	0.15
554.875	0.16
555.22	0.16
555.565	0.16
555.91	0.15
556.255	0.17
556.6	0.16
556.945	0.16
557.29	0.16
557.635	0.16
557.98	0.16
558.325	0.16
558.67	0.16
559.014	0.15
559.359	0.16
559.704	0.17
560.048	0.15
560.393	0.16
560.737	0.15
561.082	0.15
561.426	0.15
561.77	0.16
562.115	0.15
562.459	0.15
562.803	0.16
563.147	0.15
563.491	0.15
563.835	0.16
564.179	0.16
564.523	0.15
564.867	0.16
565.211	0.16
565.555	0.16
565.899	0.17
566.242	0.16
566.586	0.15
566.93	0.15
567.273	0.17
567.617	0.16
567.96	0.16
568.304	0.16
568.647	0.16
568.99	0.16
569.334	0.17
569.677	0.16
570.02	0.17
570.363	0.16
570.706	0.16
571.049	0.16
571.392	0.16
571.735	0.16
572.078	0.16
572.421	0.17
572.764	0.17
573.106	0.16
573.449	0.16
573.792	0.16
574.134	0.16
574.477	0.17
574.819	0.16
575.162	0.15
575.504	0.15
575.847	0.16
576.189	0.16
576.531	0.16
576.873	0.16
577.215	0.15
577.558	0.16
577.9	0.15
578.242	0.16
578.584	0.15
578.926	0.16
579.267	0.16
579.609	0.16
579.951	0.16
580.293	0.16
580.634	0.16
580.976	0.15
581.318	0.16
581.659	0.15
582.001	0.16
582.342	0.15
582.683	0.16
583.025	0.15
583.366	0.15
583.707	0.15
584.049	0.14
584.39	0.16
584.731	0.14
585.072	0.15
585.413	0.16
585.754	0.16
586.095	0.15
586.435	0.16
586.776	0.15
587.117	0.15
587.458	0.15
587.798	0.16
588.139	0.15
588.48	0.14
588.82	0.15
589.161	0.15
589.501	0.15
589.841	0.15
590.182	0.15
590.522	0.14
590.862	0.15
591.202	0.15
591.542	0.15
591.882	0.15
592.222	0.15
592.562	0.15
592.902	0.15
593.242	0.15
593.582	0.16
593.922	0.16
594.261	0.15
594.601	0.15
594.941	0.16
595.28	0.15
595.62	0.16
595.959	0.15
596.299	0.14
596.638	0.15
596.977	0.15
597.317	0.16
597.656	0.16
597.995	0.16
598.334	0.17
598.673	0.16
599.012	0.16
599.351	0.16
599.69	0.15
600.029	0.16
600.368	0.16
600.707	0.15
601.046	0.16
601.384	0.16
601.723	0.16
602.061	0.16
602.4	0.16
602.738	0.16
603.077	0.15
603.415	0.15
603.754	0.16
604.092	0.15
604.43	0.15
604.768	0.16
605.107	0.16
605.445	0.15
605.783	0.14
606.121	0.15
606.459	0.15
606.796	0.15
607.134	0.15
607.472	0.15
607.81	0.15
608.148	0.15
608.485	0.15
608.823	0.15
609.16	0.14
609.498	0.15
609.835	0.15
610.173	0.15
610.51	0.15
610.847	0.15
611.185	0.15
611.522	0.15
611.859	0.16
612.196	0.16
612.533	0.15
612.87	0.16
613.207	0.16
613.544	0.16
613.881	0.17
614.217	0.15
614.554	0.16
614.891	0.15
615.228	0.16
615.564	0.16
615.901	0.16
616.237	0.17
616.574	0.16
616.91	0.16
617.246	0.16
617.583	0.16
617.919	0.16
618.255	0.16
618.591	0.16
618.927	0.16
619.263	0.16
619.599	0.16
619.935	0.16
620.271	0.16
620.607	0.16
620.943	0.15
621.279	0.16
621.614	0.15
621.95	0.16
622.286	0.15
622.621	0.15
622.957	0.15
623.292	0.14
623.627	0.15
623.963	0.15
624.298	0.15
624.633	0.15
624.968	0.15
625.304	0.15
625.639	0.14
625.974	0.15
626.309	0.14
626.644	0.14
626.979	0.15
627.313	0.14
627.648	0.14
627.983	0.15
628.318	0.14
628.652	0.14
628.987	0.14
629.321	0.14
629.656	0.14
629.99	0.14
630.325	0.14
630.659	0.14
630.993	0.13
631.327	0.14
631.662	0.12
631.996	0.13
632.33	0.14
632.664	0.14
632.998	0.13
633.332	0.14
633.666	0.14
633.999	0.13
634.333	0.13
634.667	0.13
635.001	0.13
635.334	0.14
635.668	0.13
636.001	0.13
636.335	0.13
636.668	0.13
637.001	0.13
637.335	0.13
637.668	0.13
638.001	0.12
638.334	0.14
638.668	0.13
639.001	0.13
639.334	0.12
639.667	0.13
639.999	0.13
640.332	0.13
640.665	0.12
640.998	0.13
641.331	0.13
641.663	0.12
641.996	0.13
642.328	0.13
642.661	0.13
642.993	0.13
643.326	0.13
643.658	0.13
643.99	0.12
644.323	0.12
644.655	0.12
644.987	0.13
645.319	0.13
645.651	0.13
645.983	0.12
646.315	0.12
646.647	0.12
646.979	0.13
647.31	0.13
647.642	0.12
647.974	0.12
648.305	0.13
648.637	0.13
648.968	0.13
649.3	0.12
649.631	0.13
649.963	0.13
650.294	0.13
650.625	0.12
650.957	0.13
651.288	0.13
651.619	0.13
651.95	0.13
652.281	0.13
652.612	0.13
652.943	0.13
653.274	0.13
653.604	0.13
653.935	0.13
654.266	0.13
654.596	0.12
654.927	0.12
655.258	0.13
655.588	0.13
655.918	0.13
656.249	0.11
656.579	0.12
656.909	0.12
657.24	0.12
657.57	0.12
657.9	0.12
658.23	0.13
658.56	0.13
658.89	0.14
659.22	0.12
659.55	0.12
659.88	0.13
660.209	0.12
660.539	0.14
660.869	0.13
661.198	0.13
661.528	0.13
661.857	0.12
662.187	0.12
662.516	0.12
662.846	0.12
663.175	0.12
663.504	0.13
663.833	0.12
664.163	0.13
664.492	0.12
664.821	0.13
665.15	0.12
665.479	0.13
665.807	0.13
666.136	0.13
666.465	0.12
666.794	0.12
667.122	0.12
667.451	0.12
667.78	0.12
668.108	0.12
668.437	0.12
668.765	0.12
669.093	0.12
669.422	0.12
669.75	0.12
670.078	0.12
670.406	0.13
670.734	0.12
671.062	0.12
671.39	0.11
671.718	0.12
672.046	0.11
672.374	0.11
672.702	0.11
673.029	0.12
673.357	0.12
673.685	0.12
674.012	0.11
674.34	0.12
674.667	0.12
674.995	0.12
675.322	0.12
675.649	0.11
675.977	0.12
676.304	0.11
676.631	0.12
676.958	0.11
677.285	0.11
677.612	0.11
677.939	0.12
678.266	0.11
678.593	0.11
678.92	0.11
679.246	0.11
679.573	0.12
679.9	0.11
680.226	0.11
680.553	0.11
680.879	0.11
681.206	0.12
681.532	0.11
681.858	0.11
682.184	0.11
682.511	0.11
682.837	0.11
683.163	0.11
683.489	0.12
683.815	0.1
684.141	0.11
684.467	0.11
684.793	0.1
685.118	0.1
685.444	0.11
685.77	0.1
686.095	0.11
686.421	0.1
686.746	0.11
687.072	0.11
687.397	0.1
687.723	0.11
688.048	0.12
688.373	0.1
688.698	0.11
689.023	0.11
689.349	0.11
689.674	0.11
689.999	0.11
690.323	0.1
690.648	0.1
690.973	0.1
691.298	0.1
691.623	0.11
691.947	0.1
692.272	0.1
692.596	0.11
692.921	0.11
693.245	0.11
693.57	0.11
693.894	0.11
694.218	0.11
694.543	0.11
694.867	0.1
695.191	0.1
695.515	0.11
695.839	0.1
696.163	0.1
696.487	0.1
696.811	0.1
697.135	0.1
697.458	0.1
697.782	0.1
698.106	0.1
698.429	0.1
698.753	0.1
699.076	0.1
699.4	0.1
699.723	0.1
700.046	0.09
700.37	0.1
700.693	0.1
701.016	0.1
701.339	0.1
701.662	0.1
701.985	0.1
702.308	0.1
702.631	0.1
702.954	0.1
703.277	0.1
703.599	0.1
703.922	0.09
704.245	0.09
704.567	0.09
704.89	0.1
705.212	0.1
705.535	0.09
705.857	0.09
706.179	0.09
706.502	0.09
706.824	0.08
707.146	0.09
707.468	0.09
707.79	0.09
708.112	0.1
708.434	0.09
708.756	0.09
709.078	0.09
709.399	0.1
709.721	0.09
710.043	0.09
710.364	0.09
710.686	0.1
711.007	0.09
711.329	0.1
711.65	0.09
711.972	0.09
712.293	0.1
712.614	0.09
712.935	0.09
713.256	0.1
713.577	0.1
713.898	0.09
714.219	0.1
714.54	0.09
714.861	0.08
715.182	0.09
715.503	0.09
715.823	0.09
716.144	0.08
716.464	0.08
716.785	0.08
717.105	0.09
717.426	0.09
717.746	0.08
718.066	0.08
718.387	0.09
718.707	0.08
719.027	0.08
719.347	0.08
719.667	0.08
719.987	0.08
720.307	0.08
720.627	0.08
720.947	0.08
721.266	0.08
721.586	0.07
721.906	0.07
722.225	0.08
722.545	0.08
722.864	0.07
723.184	0.08
723.503	0.07
723.823	0.08
724.142	0.08
