Data from 12-12-AQDScycling_Absorbance__390__00390.txt Node

Date: Tue Dec 12 12:34:14 EST 2023
User: kyuminlee
Spectrometer: FLMS00943
Trigger mode: 0
Integration Time (sec): 1.000000E-1
Scans to average: 1
Electric dark correction enabled: true
Nonlinearity correction enabled: false
Boxcar width: 0
XAxis mode: Wavelengths
Number of Pixels in Spectrum: 2048
>>>>>Begin Spectral Data<<<<<
179.651	-0
180.037	-0
180.424	-0
180.81	-0
181.197	0.18
181.583	-0.53
181.97	-0.27
182.356	-0.99
182.743	-1.3
183.129	0.64
183.515	0.39
183.901	-2.93
184.288	2.06
184.674	-0.09
185.06	-0
185.446	-0.43
185.832	-0.85
186.218	0.09
186.604	-0
186.99	-0.29
187.376	-0
187.762	-0.17
188.148	0.34
188.534	-0.2
188.92	0.15
189.305	0.08
189.691	0.13
190.077	0.12
190.463	0.14
190.848	0.1
191.234	0.07
191.619	0.2
192.005	0.1
192.391	0.23
192.776	0.14
193.161	0.24
193.547	0.15
193.932	0.13
194.318	0.07
194.703	0.08
195.088	0.19
195.473	0.2
195.859	0.08
196.244	0.21
196.629	0.07
197.014	0.01
197.399	0.08
197.784	0.24
198.169	0.12
198.554	0.28
198.939	0.17
199.324	0.1
199.709	0.05
200.094	0.13
200.478	0.14
200.863	0.3
201.248	0.2
201.633	0.18
202.017	0.01
202.402	0.1
202.787	0.24
203.171	0.22
203.556	0.13
203.94	0.22
204.325	0.18
204.709	0.24
205.093	-0.01
205.478	0.3
205.862	0.08
206.246	0.16
206.631	0.03
207.015	0.1
207.399	0.13
207.783	0.03
208.167	0.23
208.551	0.17
208.935	0.21
209.319	0.13
209.703	0.35
210.087	0.21
210.471	0.03
210.855	0.14
211.239	0.11
211.623	0.23
212.007	0.17
212.39	0.34
212.774	0.16
213.158	0.14
213.541	0.23
213.925	0.19
214.309	0.31
214.692	0.4
215.076	0.23
215.459	0.15
215.842	0.21
216.226	0.34
216.609	0.44
216.993	0.16
217.376	0.67
217.759	0.22
218.142	0.26
218.525	0.51
218.909	0.32
219.292	0.33
219.675	0.4
220.058	0.37
220.441	0.54
220.824	0.42
221.207	0.53
221.59	0.55
221.973	0.51
222.355	0.57
222.738	0.83
223.121	0.45
223.504	0.56
223.886	0.62
224.269	0.69
224.652	0.63
225.034	0.66
225.417	0.63
225.799	0.8
226.182	0.78
226.564	0.79
226.947	0.75
227.329	0.83
227.711	0.87
228.094	0.91
228.476	0.81
228.858	0.73
229.24	0.76
229.623	0.92
230.005	0.84
230.387	0.86
230.769	0.73
231.151	0.79
231.533	0.89
231.915	1.08
232.297	1.04
232.679	0.99
233.061	0.9
233.442	1.08
233.824	0.96
234.206	1.21
234.588	1.01
234.969	0.99
235.351	0.99
235.733	1.03
236.114	1.2
236.496	1.15
236.877	1.1
237.259	0.98
237.64	1.15
238.022	1
238.403	0.97
238.784	1.08
239.165	0.92
239.547	0.93
239.928	1.1
240.309	1.1
240.69	1.11
241.071	1.21
241.452	1.3
241.834	1.02
242.215	1.03
242.595	1.04
242.976	1.18
243.357	1.12
243.738	0.97
244.119	1.29
244.5	1.09
244.881	1.24
245.261	1.28
245.642	1.19
246.023	1.15
246.403	1.17
246.784	1.21
247.164	1.35
247.545	1.2
247.925	1.26
248.306	1.16
248.686	1.39
249.067	1.22
249.447	1.4
249.827	1.45
250.207	1.38
250.588	1.34
250.968	1.62
251.348	1.36
251.728	1.38
252.108	1.31
252.488	1.5
252.868	1.32
253.248	1.27
253.628	1.36
254.008	1.42
254.388	1.33
254.768	1.23
255.147	1.37
255.527	1.44
255.907	1.41
256.287	1.41
256.666	1.38
257.046	1.42
257.425	1.51
257.805	1.38
258.184	1.33
258.564	1.4
258.943	1.4
259.323	1.49
259.702	1.41
260.081	1.43
260.461	1.48
260.84	1.55
261.219	1.91
261.598	1.48
261.977	1.54
262.356	1.51
262.736	1.61
263.115	1.6
263.494	1.39
263.873	1.47
264.251	1.59
264.63	1.39
265.009	1.52
265.388	1.42
265.767	1.28
266.145	1.53
266.524	1.46
266.903	1.47
267.281	1.35
267.66	1.42
268.039	1.45
268.417	1.42
268.796	1.44
269.174	1.41
269.552	1.46
269.931	1.41
270.309	1.39
270.687	1.47
271.066	1.53
271.444	1.38
271.822	1.62
272.2	1.36
272.578	1.6
272.956	1.46
273.334	1.32
273.712	1.4
274.09	1.5
274.468	1.41
274.846	1.29
275.224	1.39
275.602	1.52
275.98	1.61
276.357	1.42
276.735	1.47
277.113	1.34
277.49	1.33
277.868	1.39
278.246	1.43
278.623	1.33
279.001	1.32
279.378	1.48
279.756	1.53
280.133	1.45
280.51	1.5
280.888	1.5
281.265	1.39
281.642	1.4
282.019	1.63
282.396	1.48
282.773	1.39
283.151	1.65
283.528	1.44
283.905	1.39
284.282	1.69
284.659	1.61
285.035	1.33
285.412	1.35
285.789	1.35
286.166	1.48
286.543	1.41
286.919	1.65
287.296	1.39
287.673	1.58
288.049	1.49
288.426	1.66
288.802	1.5
289.179	1.4
289.555	1.66
289.932	1.47
290.308	1.44
290.684	1.41
291.061	1.4
291.437	1.48
291.813	1.36
292.189	1.32
292.565	1.32
292.942	1.29
293.318	1.36
293.694	1.39
294.07	1.5
294.446	1.44
294.822	1.51
295.197	1.38
295.573	1.33
295.949	1.46
296.325	1.41
296.701	1.58
297.076	1.58
297.452	1.56
297.828	1.45
298.203	1.45
298.579	1.41
298.954	1.43
299.33	1.44
299.705	1.34
300.081	1.42
300.456	1.29
300.831	1.39
301.206	1.33
301.582	1.37
301.957	1.3
302.332	1.34
302.707	1.32
303.082	1.27
303.457	1.27
303.832	1.26
304.207	1.32
304.582	1.33
304.957	1.25
305.332	1.33
305.707	1.19
306.082	1.25
306.456	1.23
306.831	1.2
307.206	1.23
307.58	1.17
307.955	1.19
308.33	1.17
308.704	1.17
309.079	1.09
309.453	1.16
309.828	1.08
310.202	1.06
310.576	1.05
310.951	1.1
311.325	1.11
311.699	1.14
312.073	1.05
312.447	1.04
312.821	1.06
313.196	1.01
313.57	1.02
313.944	1.03
314.317	1
314.691	1.01
315.065	1.06
315.439	0.98
315.813	1
316.187	1
316.56	1.05
316.934	1
317.308	1.06
317.681	1.05
318.055	1.01
318.428	1.03
318.802	1.04
319.175	0.98
319.549	1
319.922	1.02
320.295	0.99
320.669	1.04
321.042	1.01
321.415	1.07
321.788	1
322.162	1.01
322.535	1.02
322.908	1
323.281	1.01
323.654	1.04
324.027	0.97
324.4	0.98
324.773	1.04
325.145	1.03
325.518	0.99
325.891	1.01
326.264	1
326.636	0.98
327.009	1.01
327.382	1.08
327.754	1.04
328.127	1.02
328.499	0.98
328.872	1.05
329.244	1.09
329.616	1
329.989	1.03
330.361	0.99
330.733	1.02
331.106	1.01
331.478	1.04
331.85	1.04
332.222	1.05
332.594	1.05
332.966	1.08
333.338	1.09
333.71	1.07
334.082	1.13
334.454	1.04
334.826	1.06
335.197	1.06
335.569	1.11
335.941	1.02
336.312	1.08
336.684	1.04
337.056	1.12
337.427	1.17
337.799	1.17
338.17	1.14
338.542	1.11
338.913	1.15
339.284	1.14
339.656	1.15
340.027	1.17
340.398	1.15
340.769	1.15
341.141	1.22
341.512	1.16
341.883	1.24
342.254	1.15
342.625	1.14
342.996	1.14
343.367	1.23
343.738	1.24
344.108	1.12
344.479	1.25
344.85	1.18
345.221	1.24
345.591	1.12
345.962	1.15
346.333	1.31
346.703	1.14
347.074	1.12
347.444	1.12
347.815	1.19
348.185	1.2
348.556	1.13
348.926	1.26
349.296	1.23
349.666	1.12
350.037	1.16
350.407	1.14
350.777	1.23
351.147	1.36
351.517	1.31
351.887	1.29
352.257	1.29
352.627	1.3
352.997	1.19
353.367	1.36
353.737	1.29
354.106	1.37
354.476	1.35
354.846	1.36
355.216	1.33
355.585	1.37
355.955	1.32
356.324	1.39
356.694	1.33
357.063	1.45
357.433	1.38
357.802	1.5
358.171	1.47
358.541	1.32
358.91	1.48
359.279	1.41
359.648	1.44
360.017	1.46
360.387	1.5
360.756	1.35
361.125	1.47
361.494	1.55
361.863	1.46
362.231	1.49
362.6	1.43
362.969	1.55
363.338	1.5
363.707	1.53
364.075	1.49
364.444	1.36
364.813	1.55
365.181	1.54
365.55	1.46
365.918	1.66
366.287	1.49
366.655	1.58
367.024	1.69
367.392	1.58
367.76	1.47
368.128	1.5
368.497	1.51
368.865	1.48
369.233	1.56
369.601	1.46
369.969	1.69
370.337	1.63
370.705	1.54
371.073	1.45
371.441	1.44
371.809	1.5
372.177	1.49
372.544	1.63
372.912	1.59
373.28	1.52
373.647	1.42
374.015	1.57
374.383	1.61
374.75	1.81
375.118	1.52
375.485	1.7
375.853	1.59
376.22	1.7
376.587	1.51
376.955	1.67
377.322	1.61
377.689	1.63
378.056	1.44
378.423	1.52
378.79	1.5
379.157	1.5
379.524	1.64
379.891	1.56
380.258	1.64
380.625	1.61
380.992	1.4
381.359	1.62
381.726	1.86
382.092	1.58
382.459	1.42
382.826	1.65
383.192	1.59
383.559	1.46
383.925	1.54
384.292	1.51
384.658	1.71
385.025	1.71
385.391	1.63
385.757	1.63
386.123	1.53
386.49	1.81
386.856	1.63
387.222	1.74
387.588	1.66
387.954	1.73
388.32	1.82
388.686	1.63
389.052	1.67
389.418	1.61
389.784	1.48
390.15	1.56
390.515	1.41
390.881	1.76
391.247	1.52
391.613	1.61
391.978	1.42
392.344	1.6
392.709	1.61
393.075	1.66
393.44	1.63
393.806	1.57
394.171	1.45
394.536	1.49
394.902	1.48
395.267	1.51
395.632	1.36
395.997	1.32
396.362	1.58
396.727	1.52
397.092	1.6
397.457	1.68
397.822	1.47
398.187	1.61
398.552	1.53
398.917	1.7
399.282	1.39
399.646	1.59
400.011	1.59
400.376	1.53
400.74	1.3
401.105	1.61
401.47	1.62
401.834	1.52
402.199	1.6
402.563	1.42
402.927	1.51
403.292	1.71
403.656	1.61
404.02	1.63
404.384	1.61
404.749	1.54
405.113	1.64
405.477	1.62
405.841	1.57
406.205	1.6
406.569	1.44
406.933	1.45
407.296	1.52
407.66	1.41
408.024	1.54
408.388	1.72
408.752	1.42
409.115	1.53
409.479	1.59
409.842	1.67
410.206	1.58
410.569	1.56
410.933	1.53
411.296	1.37
411.66	1.73
412.023	1.46
412.386	1.57
412.749	1.42
413.113	1.5
413.476	1.45
413.839	1.51
414.202	1.49
414.565	1.41
414.928	1.56
415.291	1.42
415.654	1.34
416.017	1.56
416.38	1.49
416.742	1.39
417.105	1.38
417.468	1.42
417.83	1.46
418.193	1.62
418.556	1.4
418.918	1.44
419.281	1.61
419.643	1.6
420.005	1.45
420.368	1.61
420.73	1.49
421.092	1.53
421.455	1.63
421.817	1.46
422.179	1.44
422.541	1.47
422.903	1.63
423.265	1.53
423.627	1.51
423.989	1.57
424.351	1.39
424.713	1.45
425.075	1.5
425.436	1.4
425.798	1.52
426.16	1.58
426.521	1.41
426.883	1.56
427.245	1.44
427.606	1.44
427.967	1.35
428.329	1.33
428.69	1.6
429.052	1.37
429.413	1.5
429.774	1.57
430.135	1.43
430.497	1.53
430.858	1.57
431.219	1.47
431.58	1.44
431.941	1.42
432.302	1.45
432.663	1.47
433.024	1.46
433.384	1.52
433.745	1.41
434.106	1.51
434.467	1.43
434.827	1.42
435.188	1.44
435.548	1.57
435.909	1.43
436.269	1.53
436.63	1.38
436.99	1.36
437.351	1.35
437.711	1.42
438.071	1.36
438.431	1.32
438.792	1.35
439.152	1.35
439.512	1.38
439.872	1.37
440.232	1.38
440.592	1.41
440.952	1.4
441.312	1.32
441.671	1.31
442.031	1.34
442.391	1.3
442.751	1.42
443.11	1.32
443.47	1.25
443.83	1.3
444.189	1.31
444.549	1.28
444.908	1.28
445.267	1.29
445.627	1.28
445.986	1.25
446.345	1.28
446.705	1.25
447.064	1.22
447.423	1.22
447.782	1.28
448.141	1.23
448.5	1.17
448.859	1.2
449.218	1.24
449.577	1.23
449.936	1.21
450.295	1.21
450.653	1.19
451.012	1.19
451.371	1.18
451.729	1.15
452.088	1.19
452.447	1.15
452.805	1.15
453.163	1.11
453.522	1.18
453.88	1.11
454.239	1.09
454.597	1.09
454.955	1.06
455.313	1.08
455.671	1.08
456.029	1.07
456.388	1.04
456.746	1.02
457.104	1.03
457.461	1
457.819	0.99
458.177	1
458.535	0.96
458.893	0.97
459.25	0.95
459.608	0.94
459.966	0.92
460.323	0.92
460.681	0.87
461.038	0.89
461.396	0.87
461.753	0.86
462.111	0.86
462.468	0.84
462.825	0.82
463.182	0.83
463.54	0.79
463.897	0.81
464.254	0.78
464.611	0.77
464.968	0.76
465.325	0.76
465.682	0.75
466.039	0.73
466.395	0.71
466.752	0.72
467.109	0.7
467.466	0.69
467.822	0.69
468.179	0.67
468.535	0.66
468.892	0.64
469.248	0.65
469.605	0.63
469.961	0.61
470.318	0.63
470.674	0.61
471.03	0.6
471.386	0.59
471.743	0.57
472.099	0.57
472.455	0.55
472.811	0.55
473.167	0.55
473.523	0.53
473.879	0.52
474.235	0.51
474.59	0.5
474.946	0.49
475.302	0.49
475.657	0.47
476.013	0.47
476.369	0.45
476.724	0.45
477.08	0.44
477.435	0.44
477.791	0.44
478.146	0.44
478.501	0.42
478.857	0.42
479.212	0.41
479.567	0.4
479.922	0.39
480.277	0.39
480.632	0.37
480.987	0.37
481.342	0.37
481.697	0.35
482.052	0.35
482.407	0.35
482.762	0.34
483.116	0.33
483.471	0.33
483.826	0.32
484.18	0.32
484.535	0.3
484.89	0.3
485.244	0.29
485.598	0.3
485.953	0.29
486.307	0.29
486.661	0.28
487.016	0.28
487.37	0.27
487.724	0.27
488.078	0.26
488.432	0.26
488.786	0.26
489.14	0.25
489.494	0.24
489.848	0.24
490.202	0.23
490.556	0.23
490.91	0.23
491.263	0.22
491.617	0.22
491.971	0.22
492.324	0.22
492.678	0.21
493.031	0.21
493.385	0.21
493.738	0.21
494.091	0.21
494.445	0.2
494.798	0.2
495.151	0.19
495.504	0.2
495.857	0.19
496.21	0.19
496.564	0.19
496.916	0.19
497.269	0.17
497.622	0.18
497.975	0.18
498.328	0.18
498.681	0.18
499.033	0.17
499.386	0.17
499.739	0.17
500.091	0.17
500.444	0.17
500.796	0.16
501.149	0.16
501.501	0.16
501.854	0.16
502.206	0.15
502.558	0.15
502.91	0.15
503.263	0.14
503.615	0.15
503.967	0.15
504.319	0.15
504.671	0.15
505.023	0.14
505.375	0.14
505.726	0.14
506.078	0.14
506.43	0.13
506.782	0.13
507.133	0.13
507.485	0.14
507.837	0.14
508.188	0.14
508.54	0.14
508.891	0.14
509.243	0.13
509.594	0.14
509.945	0.13
510.296	0.13
510.648	0.14
510.999	0.12
511.35	0.13
511.701	0.13
512.052	0.13
512.403	0.13
512.754	0.13
513.105	0.12
513.456	0.12
513.807	0.12
514.157	0.13
514.508	0.13
514.859	0.12
515.209	0.12
515.56	0.13
515.91	0.12
516.261	0.13
516.611	0.12
516.962	0.12
517.312	0.13
517.662	0.12
518.013	0.12
518.363	0.12
518.713	0.13
519.063	0.12
519.413	0.12
519.763	0.12
520.113	0.12
520.463	0.12
520.813	0.13
521.163	0.12
521.512	0.12
521.862	0.12
522.212	0.12
522.562	0.12
522.911	0.12
523.261	0.11
523.61	0.12
523.96	0.12
524.309	0.12
524.658	0.12
525.008	0.11
525.357	0.12
525.706	0.12
526.056	0.12
526.405	0.12
526.754	0.12
527.103	0.12
527.452	0.12
527.801	0.12
528.15	0.12
528.499	0.12
528.847	0.12
529.196	0.12
529.545	0.12
529.893	0.13
530.242	0.12
530.591	0.13
530.939	0.13
531.288	0.13
531.636	0.13
531.985	0.13
532.333	0.12
532.681	0.12
533.029	0.12
533.378	0.13
533.726	0.13
534.074	0.13
534.422	0.12
534.77	0.13
535.118	0.12
535.466	0.12
535.814	0.12
536.162	0.13
536.509	0.13
536.857	0.12
537.205	0.12
537.552	0.13
537.9	0.12
538.248	0.12
538.595	0.13
538.943	0.12
539.29	0.13
539.637	0.12
539.985	0.13
540.332	0.12
540.679	0.13
541.026	0.12
541.373	0.13
541.721	0.11
542.068	0.12
542.415	0.12
542.762	0.12
543.108	0.11
543.455	0.11
543.802	0.11
544.149	0.12
544.496	0.11
544.842	0.11
545.189	0.11
545.535	0.11
545.882	0.11
546.228	0.11
546.575	0.11
546.921	0.11
547.267	0.11
547.614	0.11
547.96	0.11
548.306	0.11
548.652	0.11
548.998	0.12
549.344	0.11
549.69	0.11
550.036	0.11
550.382	0.11
550.728	0.11
551.074	0.13
551.42	0.12
551.765	0.12
552.111	0.12
552.457	0.12
552.802	0.11
553.148	0.12
553.493	0.11
553.839	0.12
554.184	0.11
554.529	0.11
554.875	0.12
555.22	0.13
555.565	0.12
555.91	0.12
556.255	0.13
556.6	0.13
556.945	0.11
557.29	0.11
557.635	0.13
557.98	0.12
558.325	0.12
558.67	0.12
559.014	0.13
559.359	0.12
559.704	0.13
560.048	0.11
560.393	0.12
560.737	0.11
561.082	0.12
561.426	0.11
561.77	0.12
562.115	0.11
562.459	0.12
562.803	0.12
563.147	0.12
563.491	0.11
563.835	0.12
564.179	0.12
564.523	0.12
564.867	0.11
565.211	0.12
565.555	0.12
565.899	0.12
566.242	0.12
566.586	0.11
566.93	0.11
567.273	0.13
567.617	0.13
567.96	0.13
568.304	0.13
568.647	0.12
568.99	0.12
569.334	0.14
569.677	0.12
570.02	0.12
570.363	0.12
570.706	0.12
571.049	0.12
571.392	0.12
571.735	0.11
572.078	0.13
572.421	0.12
572.764	0.12
573.106	0.12
573.449	0.11
573.792	0.11
574.134	0.11
574.477	0.13
574.819	0.12
575.162	0.12
575.504	0.11
575.847	0.12
576.189	0.12
576.531	0.12
576.873	0.12
577.215	0.13
577.558	0.12
577.9	0.11
578.242	0.12
578.584	0.12
578.926	0.13
579.267	0.12
579.609	0.12
579.951	0.12
580.293	0.12
580.634	0.12
580.976	0.12
581.318	0.12
581.659	0.11
582.001	0.12
582.342	0.11
582.683	0.12
583.025	0.11
583.366	0.12
583.707	0.12
584.049	0.12
584.39	0.11
584.731	0.11
585.072	0.12
585.413	0.12
585.754	0.12
586.095	0.12
586.435	0.12
586.776	0.12
587.117	0.12
587.458	0.11
587.798	0.12
588.139	0.12
588.48	0.12
588.82	0.11
589.161	0.12
589.501	0.12
589.841	0.11
590.182	0.11
590.522	0.11
590.862	0.12
591.202	0.12
591.542	0.11
591.882	0.11
592.222	0.11
592.562	0.12
592.902	0.12
593.242	0.12
593.582	0.12
593.922	0.12
594.261	0.11
594.601	0.11
594.941	0.12
595.28	0.12
595.62	0.12
595.959	0.11
596.299	0.11
596.638	0.11
596.977	0.12
597.317	0.12
597.656	0.11
597.995	0.12
598.334	0.13
598.673	0.12
599.012	0.12
599.351	0.12
599.69	0.11
600.029	0.12
600.368	0.12
600.707	0.12
601.046	0.12
601.384	0.12
601.723	0.13
602.061	0.12
602.4	0.12
602.738	0.11
603.077	0.12
603.415	0.11
603.754	0.12
604.092	0.12
604.43	0.11
604.768	0.11
605.107	0.12
605.445	0.11
605.783	0.11
606.121	0.11
606.459	0.12
606.796	0.12
607.134	0.11
607.472	0.11
607.81	0.11
608.148	0.11
608.485	0.11
608.823	0.12
609.16	0.11
609.498	0.12
609.835	0.12
610.173	0.11
610.51	0.11
610.847	0.12
611.185	0.12
611.522	0.12
611.859	0.12
612.196	0.12
612.533	0.13
612.87	0.13
613.207	0.12
613.544	0.13
613.881	0.13
614.217	0.12
614.554	0.12
614.891	0.13
615.228	0.12
615.564	0.12
615.901	0.12
616.237	0.12
616.574	0.12
616.91	0.13
617.246	0.12
617.583	0.12
617.919	0.12
618.255	0.12
618.591	0.12
618.927	0.13
619.263	0.13
619.599	0.13
619.935	0.12
620.271	0.13
620.607	0.13
620.943	0.12
621.279	0.13
621.614	0.12
621.95	0.12
622.286	0.12
622.621	0.11
622.957	0.12
623.292	0.11
623.627	0.12
623.963	0.11
624.298	0.11
624.633	0.11
624.968	0.11
625.304	0.11
625.639	0.11
625.974	0.11
626.309	0.1
626.644	0.11
626.979	0.11
627.313	0.11
627.648	0.11
627.983	0.11
628.318	0.1
628.652	0.1
628.987	0.1
629.321	0.11
629.656	0.1
629.99	0.1
630.325	0.1
630.659	0.11
630.993	0.1
631.327	0.11
631.662	0.1
631.996	0.1
632.33	0.1
632.664	0.11
632.998	0.09
633.332	0.1
633.666	0.1
633.999	0.1
634.333	0.1
634.667	0.1
635.001	0.1
635.334	0.1
635.668	0.1
636.001	0.1
636.335	0.1
636.668	0.1
637.001	0.09
637.335	0.1
637.668	0.1
638.001	0.1
638.334	0.1
638.668	0.1
639.001	0.09
639.334	0.1
639.667	0.09
639.999	0.09
640.332	0.1
640.665	0.09
640.998	0.09
641.331	0.09
641.663	0.09
641.996	0.09
642.328	0.09
642.661	0.09
642.993	0.09
643.326	0.09
643.658	0.09
643.99	0.09
644.323	0.09
644.655	0.09
644.987	0.09
645.319	0.09
645.651	0.1
645.983	0.08
646.315	0.09
646.647	0.09
646.979	0.1
647.31	0.09
647.642	0.09
647.974	0.09
648.305	0.1
648.637	0.09
648.968	0.1
649.3	0.09
649.631	0.1
649.963	0.09
650.294	0.1
650.625	0.09
650.957	0.1
651.288	0.1
651.619	0.1
651.95	0.1
652.281	0.1
652.612	0.1
652.943	0.1
653.274	0.1
653.604	0.1
653.935	0.1
654.266	0.09
654.596	0.09
654.927	0.09
655.258	0.1
655.588	0.1
655.918	0.1
656.249	0.08
656.579	0.09
656.909	0.09
657.24	0.1
657.57	0.11
657.9	0.1
658.23	0.1
658.56	0.1
658.89	0.11
659.22	0.1
659.55	0.1
659.88	0.1
660.209	0.1
660.539	0.11
660.869	0.1
661.198	0.11
661.528	0.1
661.857	0.1
662.187	0.11
662.516	0.11
662.846	0.09
663.175	0.1
663.504	0.1
663.833	0.1
664.163	0.1
664.492	0.1
664.821	0.1
665.15	0.1
665.479	0.1
665.807	0.09
666.136	0.09
666.465	0.09
666.794	0.1
667.122	0.09
667.451	0.09
667.78	0.09
668.108	0.1
668.437	0.09
668.765	0.09
669.093	0.09
669.422	0.09
669.75	0.09
670.078	0.1
670.406	0.09
670.734	0.09
671.062	0.09
671.39	0.09
671.718	0.09
672.046	0.09
672.374	0.09
672.702	0.09
673.029	0.08
673.357	0.1
673.685	0.1
674.012	0.08
674.34	0.09
674.667	0.1
674.995	0.09
675.322	0.09
675.649	0.09
675.977	0.09
676.304	0.1
676.631	0.1
676.958	0.09
677.285	0.09
677.612	0.09
677.939	0.09
678.266	0.09
678.593	0.09
678.92	0.09
679.246	0.09
679.573	0.09
679.9	0.09
680.226	0.09
680.553	0.08
680.879	0.09
681.206	0.09
681.532	0.09
681.858	0.09
682.184	0.09
682.511	0.09
682.837	0.08
683.163	0.09
683.489	0.08
683.815	0.08
684.141	0.08
684.467	0.08
684.793	0.08
685.118	0.08
685.444	0.08
685.77	0.08
686.095	0.09
686.421	0.09
686.746	0.09
687.072	0.09
687.397	0.08
687.723	0.09
688.048	0.1
688.373	0.09
688.698	0.09
689.023	0.09
689.349	0.09
689.674	0.09
689.999	0.08
690.323	0.08
690.648	0.08
690.973	0.08
691.298	0.08
691.623	0.08
691.947	0.09
692.272	0.08
692.596	0.09
692.921	0.09
693.245	0.08
693.57	0.09
693.894	0.09
694.218	0.08
694.543	0.08
694.867	0.08
695.191	0.07
695.515	0.09
695.839	0.08
696.163	0.07
696.487	0.08
696.811	0.07
697.135	0.08
697.458	0.08
697.782	0.07
698.106	0.08
698.429	0.08
698.753	0.08
699.076	0.08
699.4	0.08
699.723	0.08
700.046	0.07
700.37	0.08
700.693	0.08
701.016	0.08
701.339	0.08
701.662	0.08
701.985	0.08
702.308	0.07
702.631	0.08
702.954	0.08
703.277	0.07
703.599	0.08
703.922	0.07
704.245	0.07
704.567	0.07
704.89	0.07
705.212	0.08
705.535	0.06
705.857	0.07
706.179	0.06
706.502	0.07
706.824	0.07
707.146	0.07
707.468	0.07
707.79	0.06
708.112	0.07
708.434	0.07
708.756	0.07
709.078	0.07
709.399	0.06
709.721	0.06
710.043	0.08
710.364	0.08
710.686	0.07
711.007	0.07
711.329	0.08
711.65	0.08
711.972	0.07
712.293	0.08
712.614	0.08
712.935	0.07
713.256	0.07
713.577	0.08
713.898	0.07
714.219	0.06
714.54	0.07
714.861	0.06
715.182	0.07
715.503	0.07
715.823	0.06
716.144	0.06
716.464	0.05
716.785	0.06
717.105	0.07
717.426	0.07
717.746	0.05
718.066	0.06
718.387	0.06
718.707	0.05
719.027	0.06
719.347	0.05
719.667	0.06
719.987	0.05
720.307	0.06
720.627	0.06
720.947	0.06
721.266	0.06
721.586	0.05
721.906	0.06
722.225	0.05
722.545	0.06
722.864	0.05
723.184	0.07
723.503	0.06
723.823	0.06
724.142	0.04
724.461	0.05
724.78	0.05
725.099	0.05
