Data from 12-12-AQDScycling_Absorbance__426__00426.txt Node

Date: Tue Dec 12 12:43:14 EST 2023
User: kyuminlee
Spectrometer: FLMS00943
Trigger mode: 0
Integration Time (sec): 1.000000E-1
Scans to average: 1
Electric dark correction enabled: true
Nonlinearity correction enabled: false
Boxcar width: 0
XAxis mode: Wavelengths
Number of Pixels in Spectrum: 2048
>>>>>Begin Spectral Data<<<<<
179.651	-0.12
180.037	-0.12
180.424	-0.12
180.81	0.6
181.197	1.36
181.583	-0
181.97	-0.35
182.356	-0
182.743	-1.17
183.129	-0.09
183.515	0.33
183.901	-2.65
184.288	0.11
184.674	0.53
185.06	-1.13
185.446	-0
185.832	-0
186.218	-0.13
186.604	-0.11
186.99	-0
187.376	-0
187.762	-0.2
188.148	-0
188.534	-0.32
188.92	0.05
189.305	0.06
189.691	0.18
190.077	0.25
190.463	0.06
190.848	0.08
191.234	0
191.619	0.15
192.005	0.09
192.391	0.27
192.776	0.16
193.161	0.24
193.547	0.17
193.932	0.19
194.318	0.02
194.703	0.14
195.088	0.4
195.473	0.22
195.859	0.26
196.244	0.17
196.629	0.07
197.014	0.03
197.399	0.19
197.784	0.13
198.169	0.24
198.554	0.35
198.939	0.06
199.324	0.16
199.709	0.03
200.094	0.13
200.478	0.13
200.863	0.32
201.248	0.24
201.633	0.21
202.017	0.26
202.402	0.16
202.787	0.15
203.171	0.08
203.556	0.08
203.94	0.16
204.325	0.2
204.709	0.25
205.093	0.12
205.478	0.16
205.862	0.04
206.246	0.17
206.631	0.1
207.015	0.07
207.399	0.22
207.783	0.2
208.167	0.14
208.551	0.21
208.935	0.13
209.319	0.27
209.703	0.11
210.087	0.24
210.471	0.15
210.855	0.27
211.239	0.36
211.623	0.39
212.007	0.33
212.39	0.31
212.774	0.12
213.158	0.15
213.541	0.21
213.925	0.25
214.309	0.33
214.692	0.21
215.076	0.15
215.459	0.18
215.842	0.21
216.226	0.22
216.609	0.32
216.993	0.29
217.376	0.3
217.759	0.16
218.142	0.45
218.525	0.64
218.909	0.35
219.292	0.31
219.675	0.52
220.058	0.33
220.441	0.36
220.824	0.43
221.207	0.68
221.59	0.5
221.973	0.59
222.355	0.68
222.738	0.8
223.121	0.72
223.504	0.57
223.886	0.67
224.269	0.76
224.652	0.63
225.034	0.77
225.417	0.78
225.799	0.84
226.182	0.91
226.564	0.83
226.947	0.95
227.329	0.73
227.711	0.96
228.094	1.11
228.476	0.98
228.858	0.78
229.24	0.9
229.623	1.24
230.005	0.93
230.387	0.85
230.769	0.88
231.151	1.07
231.533	0.97
231.915	1.03
232.297	0.95
232.679	0.93
233.061	1.03
233.442	0.99
233.824	1.12
234.206	1.03
234.588	1.05
234.969	1.04
235.351	1.02
235.733	1.07
236.114	1.11
236.496	1.13
236.877	1.17
237.259	1.23
237.64	1.05
238.022	0.98
238.403	1.08
238.784	1.11
239.165	0.96
239.547	1.01
239.928	1.23
240.309	1.14
240.69	1.17
241.071	1.22
241.452	1.09
241.834	1.04
242.215	1.04
242.595	1.12
242.976	1.08
243.357	1.11
243.738	1.04
244.119	1.34
244.5	1.13
244.881	1.11
245.261	1.37
245.642	1.21
246.023	1.19
246.403	1.14
246.784	1.35
247.164	1.38
247.545	1.25
247.925	1.18
248.306	1.21
248.686	1.39
249.067	1.28
249.447	1.37
249.827	1.37
250.207	1.63
250.588	1.26
250.968	1.77
251.348	1.33
251.728	1.5
252.108	1.37
252.488	1.37
252.868	1.37
253.248	1.3
253.628	1.27
254.008	1.51
254.388	1.28
254.768	1.32
255.147	1.3
255.527	1.42
255.907	1.39
256.287	1.31
256.666	1.39
257.046	1.44
257.425	1.56
257.805	1.35
258.184	1.32
258.564	1.44
258.943	1.33
259.323	1.61
259.702	1.38
260.081	1.46
260.461	1.56
260.84	1.56
261.219	1.73
261.598	1.41
261.977	1.46
262.356	1.6
262.736	1.49
263.115	1.55
263.494	1.35
263.873	1.58
264.251	1.41
264.63	1.66
265.009	1.37
265.388	1.34
265.767	1.4
266.145	1.51
266.524	1.37
266.903	1.42
267.281	1.36
267.66	1.51
268.039	1.54
268.417	1.42
268.796	1.51
269.174	1.46
269.552	1.32
269.931	1.59
270.309	1.36
270.687	1.53
271.066	1.44
271.444	1.45
271.822	1.59
272.2	1.4
272.578	1.38
272.956	1.39
273.334	1.38
273.712	1.41
274.09	1.47
274.468	1.47
274.846	1.29
275.224	1.49
275.602	1.58
275.98	1.63
276.357	1.46
276.735	1.39
277.113	1.53
277.49	1.37
277.868	1.31
278.246	1.36
278.623	1.35
279.001	1.47
279.378	1.53
279.756	1.55
280.133	1.69
280.51	1.45
280.888	1.32
281.265	1.36
281.642	1.41
282.019	1.64
282.396	1.52
282.773	1.43
283.151	1.55
283.528	1.44
283.905	1.47
284.282	1.52
284.659	1.54
285.035	1.37
285.412	1.45
285.789	1.4
286.166	1.5
286.543	1.4
286.919	1.58
287.296	1.41
287.673	1.58
288.049	1.52
288.426	1.65
288.802	1.55
289.179	1.49
289.555	1.89
289.932	1.44
290.308	1.32
290.684	1.49
291.061	1.48
291.437	1.44
291.813	1.38
292.189	1.36
292.565	1.36
292.942	1.3
293.318	1.39
293.694	1.48
294.07	1.31
294.446	1.36
294.822	1.54
295.197	1.49
295.573	1.63
295.949	1.45
296.325	1.46
296.701	1.56
297.076	1.56
297.452	1.56
297.828	1.49
298.203	1.73
298.579	1.52
298.954	1.45
299.33	1.48
299.705	1.53
300.081	1.54
300.456	1.6
300.831	1.44
301.206	1.5
301.582	1.43
301.957	1.57
302.332	1.67
302.707	1.48
303.082	1.49
303.457	1.44
303.832	1.43
304.207	1.41
304.582	1.36
304.957	1.47
305.332	1.55
305.707	1.52
306.082	1.45
306.456	1.54
306.831	1.35
307.206	1.55
307.58	1.49
307.955	1.39
308.33	1.42
308.704	1.37
309.079	1.35
309.453	1.57
309.828	1.39
310.202	1.47
310.576	1.41
310.951	1.47
311.325	1.42
311.699	1.52
312.073	1.37
312.447	1.38
312.821	1.4
313.196	1.42
313.57	1.37
313.944	1.4
314.317	1.46
314.691	1.49
315.065	1.45
315.439	1.57
315.813	1.55
316.187	1.48
316.56	1.66
316.934	1.56
317.308	1.36
317.681	1.4
318.055	1.42
318.428	1.56
318.802	1.45
319.175	1.46
319.549	1.43
319.922	1.32
320.295	1.41
320.669	1.74
321.042	1.51
321.415	1.74
321.788	1.47
322.162	1.44
322.535	1.52
322.908	1.51
323.281	1.5
323.654	1.52
324.027	1.41
324.4	1.54
324.773	1.5
325.145	1.53
325.518	1.42
325.891	1.38
326.264	1.52
326.636	1.53
327.009	1.46
327.382	1.46
327.754	1.57
328.127	1.4
328.499	1.62
328.872	1.44
329.244	1.56
329.616	1.39
329.989	1.43
330.361	1.46
330.733	1.4
331.106	1.53
331.478	1.64
331.85	1.42
332.222	1.43
332.594	1.52
332.966	1.48
333.338	1.43
333.71	1.5
334.082	1.49
334.454	1.45
334.826	1.47
335.197	1.44
335.569	1.41
335.941	1.35
336.312	1.44
336.684	1.45
337.056	1.43
337.427	1.64
337.799	1.61
338.17	1.59
338.542	1.49
338.913	1.48
339.284	1.49
339.656	1.44
340.027	1.51
340.398	1.54
340.769	1.53
341.141	1.73
341.512	1.62
341.883	1.47
342.254	1.55
342.625	1.49
342.996	1.49
343.367	1.51
343.738	1.68
344.108	1.47
344.479	1.58
344.85	1.46
345.221	1.56
345.591	1.35
345.962	1.49
346.333	1.54
346.703	1.29
347.074	1.42
347.444	1.35
347.815	1.42
348.185	1.49
348.556	1.37
348.926	1.28
349.296	1.3
349.666	1.43
350.037	1.28
350.407	1.3
350.777	1.29
351.147	1.35
351.517	1.39
351.887	1.28
352.257	1.51
352.627	1.34
352.997	1.3
353.367	1.4
353.737	1.41
354.106	1.36
354.476	1.33
354.846	1.39
355.216	1.34
355.585	1.4
355.955	1.33
356.324	1.43
356.694	1.32
357.063	1.39
357.433	1.3
357.802	1.39
358.171	1.35
358.541	1.37
358.91	1.38
359.279	1.36
359.648	1.34
360.017	1.41
360.387	1.39
360.756	1.35
361.125	1.38
361.494	1.34
361.863	1.32
362.231	1.27
362.6	1.27
362.969	1.27
363.338	1.23
363.707	1.38
364.075	1.39
364.444	1.21
364.813	1.27
365.181	1.24
365.55	1.23
365.918	1.35
366.287	1.39
366.655	1.32
367.024	1.27
367.392	1.33
367.76	1.23
368.128	1.27
368.497	1.21
368.865	1.21
369.233	1.3
369.601	1.29
369.969	1.24
370.337	1.3
370.705	1.27
371.073	1.39
371.441	1.22
371.809	1.17
372.177	1.3
372.544	1.28
372.912	1.33
373.28	1.26
373.647	1.38
374.015	1.37
374.383	1.35
374.75	1.45
375.118	1.3
375.485	1.3
375.853	1.37
376.22	1.27
376.587	1.24
376.955	1.28
377.322	1.23
377.689	1.32
378.056	1.3
378.423	1.3
378.79	1.29
379.157	1.35
379.524	1.35
379.891	1.3
380.258	1.36
380.625	1.39
380.992	1.46
381.359	1.4
381.726	1.37
382.092	1.35
382.459	1.31
382.826	1.38
383.192	1.32
383.559	1.34
383.925	1.39
384.292	1.42
384.658	1.49
385.025	1.4
385.391	1.42
385.757	1.53
386.123	1.41
386.49	1.38
386.856	1.49
387.222	1.56
387.588	1.49
387.954	1.57
388.32	1.51
388.686	1.49
389.052	1.42
389.418	1.52
389.784	1.33
390.15	1.49
390.515	1.29
390.881	1.47
391.247	1.44
391.613	1.49
391.978	1.4
392.344	1.53
392.709	1.49
393.075	1.45
393.44	1.53
393.806	1.51
394.171	1.31
394.536	1.5
394.902	1.47
395.267	1.44
395.632	1.41
395.997	1.32
396.362	1.46
396.727	1.47
397.092	1.48
397.457	1.36
397.822	1.36
398.187	1.43
398.552	1.51
398.917	1.49
399.282	1.39
399.646	1.49
400.011	1.49
400.376	1.41
400.74	1.37
401.105	1.35
401.47	1.37
401.834	1.37
402.199	1.3
402.563	1.32
402.927	1.29
403.292	1.45
403.656	1.31
404.02	1.28
404.384	1.34
404.749	1.39
405.113	1.34
405.477	1.3
405.841	1.31
406.205	1.34
406.569	1.31
406.933	1.23
407.296	1.22
407.66	1.22
408.024	1.27
408.388	1.25
408.752	1.28
409.115	1.31
409.479	1.31
409.842	1.23
410.206	1.2
410.569	1.25
410.933	1.22
411.296	1.19
411.66	1.23
412.023	1.16
412.386	1.17
412.749	1.13
413.113	1.16
413.476	1.09
413.839	1.15
414.202	1.19
414.565	1.08
414.928	1.15
415.291	1.14
415.654	1.06
416.017	1.17
416.38	1.11
416.742	1.14
417.105	1.16
417.468	1.09
417.83	1.12
418.193	1.15
418.556	1.1
418.918	1.07
419.281	1.13
419.643	1.14
420.005	1.04
420.368	1.11
420.73	1.07
421.092	1.09
421.455	1.11
421.817	1.04
422.179	1.03
422.541	1.09
422.903	1.11
423.265	1.08
423.627	1.1
423.989	1.11
424.351	1.02
424.713	1.04
425.075	1.02
425.436	1.07
425.798	1.02
426.16	1.07
426.521	1.03
426.883	1.04
427.245	1.04
427.606	0.97
427.967	0.99
428.329	1.03
428.69	1.06
429.052	1.01
429.413	1.02
429.774	1.03
430.135	1
430.497	1.02
430.858	0.97
431.219	0.98
431.58	1
431.941	0.99
432.302	0.95
432.663	0.99
433.024	1.03
433.384	1
433.745	0.94
434.106	0.98
434.467	0.97
434.827	0.96
435.188	0.95
435.548	1
435.909	0.92
436.269	0.97
436.63	0.94
436.99	0.95
437.351	0.94
437.711	0.95
438.071	0.89
438.431	0.93
438.792	0.94
439.152	0.93
439.512	0.91
439.872	0.89
440.232	0.93
440.592	0.91
440.952	0.87
441.312	0.89
441.671	0.89
442.031	0.9
442.391	0.88
442.751	0.88
443.11	0.86
443.47	0.86
443.83	0.84
444.189	0.83
444.549	0.86
444.908	0.83
445.267	0.82
445.627	0.82
445.986	0.84
446.345	0.81
446.705	0.82
447.064	0.81
447.423	0.8
447.782	0.81
448.141	0.8
448.5	0.78
448.859	0.77
449.218	0.78
449.577	0.83
449.936	0.8
450.295	0.77
450.653	0.78
451.012	0.75
451.371	0.75
451.729	0.75
452.088	0.76
452.447	0.75
452.805	0.74
453.163	0.75
453.522	0.73
453.88	0.73
454.239	0.71
454.597	0.7
454.955	0.7
455.313	0.69
455.671	0.69
456.029	0.68
456.388	0.66
456.746	0.68
457.104	0.67
457.461	0.64
457.819	0.65
458.177	0.65
458.535	0.64
458.893	0.63
459.25	0.63
459.608	0.62
459.966	0.61
460.323	0.6
460.681	0.58
461.038	0.57
461.396	0.58
461.753	0.57
462.111	0.57
462.468	0.56
462.825	0.56
463.182	0.54
463.54	0.54
463.897	0.55
464.254	0.53
464.611	0.53
464.968	0.52
465.325	0.52
465.682	0.51
466.039	0.51
466.395	0.49
466.752	0.5
467.109	0.49
467.466	0.5
467.822	0.48
468.179	0.46
468.535	0.46
468.892	0.47
469.248	0.45
469.605	0.44
469.961	0.44
470.318	0.45
470.674	0.44
471.03	0.42
471.386	0.43
471.743	0.42
472.099	0.41
472.455	0.41
472.811	0.4
473.167	0.4
473.523	0.38
473.879	0.38
474.235	0.38
474.59	0.37
474.946	0.37
475.302	0.37
475.657	0.35
476.013	0.35
476.369	0.34
476.724	0.35
477.08	0.34
477.435	0.34
477.791	0.34
478.146	0.33
478.501	0.32
478.857	0.33
479.212	0.32
479.567	0.31
479.922	0.31
480.277	0.31
480.632	0.3
480.987	0.31
481.342	0.29
481.697	0.28
482.052	0.28
482.407	0.28
482.762	0.28
483.116	0.28
483.471	0.27
483.826	0.27
484.18	0.26
484.535	0.26
484.89	0.26
485.244	0.26
485.598	0.25
485.953	0.25
486.307	0.25
486.661	0.25
487.016	0.24
487.37	0.24
487.724	0.24
488.078	0.24
488.432	0.23
488.786	0.23
489.14	0.23
489.494	0.23
489.848	0.21
490.202	0.22
490.556	0.21
490.91	0.22
491.263	0.21
491.617	0.22
491.971	0.21
492.324	0.21
492.678	0.21
493.031	0.21
493.385	0.21
493.738	0.21
494.091	0.21
494.445	0.2
494.798	0.2
495.151	0.2
495.504	0.2
495.857	0.19
496.21	0.19
496.564	0.19
496.916	0.19
497.269	0.19
497.622	0.19
497.975	0.18
498.328	0.19
498.681	0.19
499.033	0.19
499.386	0.18
499.739	0.19
500.091	0.18
500.444	0.18
500.796	0.18
501.149	0.17
501.501	0.18
501.854	0.18
502.206	0.18
502.558	0.17
502.91	0.17
503.263	0.17
503.615	0.18
503.967	0.17
504.319	0.17
504.671	0.17
505.023	0.16
505.375	0.16
505.726	0.16
506.078	0.16
506.43	0.16
506.782	0.16
507.133	0.17
507.485	0.17
507.837	0.17
508.188	0.17
508.54	0.17
508.891	0.17
509.243	0.16
509.594	0.17
509.945	0.16
510.296	0.16
510.648	0.17
510.999	0.16
511.35	0.16
511.701	0.16
512.052	0.16
512.403	0.16
512.754	0.16
513.105	0.16
513.456	0.16
513.807	0.15
514.157	0.16
514.508	0.16
514.859	0.16
515.209	0.16
515.56	0.16
515.91	0.16
516.261	0.16
516.611	0.15
516.962	0.16
517.312	0.16
517.662	0.16
518.013	0.16
518.363	0.16
518.713	0.16
519.063	0.16
519.413	0.16
519.763	0.16
520.113	0.16
520.463	0.16
520.813	0.17
521.163	0.17
521.512	0.16
521.862	0.17
522.212	0.16
522.562	0.17
522.911	0.16
523.261	0.16
523.61	0.16
523.96	0.16
524.309	0.16
524.658	0.16
525.008	0.16
525.357	0.16
525.706	0.17
526.056	0.16
526.405	0.16
526.754	0.16
527.103	0.16
527.452	0.16
527.801	0.16
528.15	0.16
528.499	0.16
528.847	0.17
529.196	0.16
529.545	0.17
529.893	0.17
530.242	0.16
530.591	0.17
530.939	0.17
531.288	0.17
531.636	0.17
531.985	0.17
532.333	0.17
532.681	0.17
533.029	0.18
533.378	0.17
533.726	0.18
534.074	0.17
534.422	0.16
534.77	0.18
535.118	0.17
535.466	0.17
535.814	0.17
536.162	0.17
536.509	0.18
536.857	0.17
537.205	0.17
537.552	0.17
537.9	0.17
538.248	0.16
538.595	0.17
538.943	0.17
539.29	0.17
539.637	0.18
539.985	0.17
540.332	0.17
540.679	0.17
541.026	0.16
541.373	0.17
541.721	0.16
542.068	0.17
542.415	0.17
542.762	0.17
543.108	0.16
543.455	0.16
543.802	0.16
544.149	0.16
544.496	0.16
544.842	0.15
545.189	0.16
545.535	0.16
545.882	0.16
546.228	0.15
546.575	0.15
546.921	0.16
547.267	0.17
547.614	0.17
547.96	0.16
548.306	0.16
548.652	0.16
548.998	0.17
549.344	0.17
549.69	0.17
550.036	0.16
550.382	0.16
550.728	0.17
551.074	0.17
551.42	0.17
551.765	0.17
552.111	0.17
552.457	0.18
552.802	0.17
553.148	0.17
553.493	0.17
553.839	0.17
554.184	0.17
554.529	0.17
554.875	0.17
555.22	0.17
555.565	0.17
555.91	0.17
556.255	0.18
556.6	0.18
556.945	0.17
557.29	0.17
557.635	0.17
557.98	0.17
558.325	0.17
558.67	0.17
559.014	0.18
559.359	0.18
559.704	0.18
560.048	0.17
560.393	0.18
560.737	0.16
561.082	0.18
561.426	0.16
561.77	0.17
562.115	0.17
562.459	0.16
562.803	0.17
563.147	0.17
563.491	0.17
563.835	0.17
564.179	0.18
564.523	0.17
564.867	0.17
565.211	0.16
565.555	0.17
565.899	0.17
566.242	0.17
566.586	0.17
566.93	0.17
567.273	0.18
567.617	0.18
567.96	0.18
568.304	0.18
568.647	0.17
568.99	0.18
569.334	0.19
569.677	0.17
570.02	0.18
570.363	0.18
570.706	0.18
571.049	0.18
571.392	0.18
571.735	0.17
572.078	0.17
572.421	0.19
572.764	0.17
573.106	0.18
573.449	0.17
573.792	0.17
574.134	0.18
574.477	0.17
574.819	0.17
575.162	0.17
575.504	0.17
575.847	0.17
576.189	0.18
576.531	0.17
576.873	0.17
577.215	0.17
577.558	0.18
577.9	0.17
578.242	0.17
578.584	0.18
578.926	0.18
579.267	0.17
579.609	0.18
579.951	0.17
580.293	0.17
580.634	0.18
580.976	0.18
581.318	0.17
581.659	0.17
582.001	0.18
582.342	0.17
582.683	0.18
583.025	0.17
583.366	0.17
583.707	0.18
584.049	0.17
584.39	0.17
584.731	0.16
585.072	0.17
585.413	0.18
585.754	0.17
586.095	0.18
586.435	0.17
586.776	0.17
587.117	0.18
587.458	0.17
587.798	0.18
588.139	0.18
588.48	0.16
588.82	0.17
589.161	0.17
589.501	0.17
589.841	0.17
590.182	0.17
590.522	0.16
590.862	0.17
591.202	0.17
591.542	0.17
591.882	0.16
592.222	0.17
592.562	0.17
592.902	0.17
593.242	0.17
593.582	0.18
593.922	0.17
594.261	0.17
594.601	0.17
594.941	0.18
595.28	0.17
595.62	0.17
595.959	0.17
596.299	0.16
596.638	0.17
596.977	0.17
597.317	0.18
597.656	0.17
597.995	0.18
598.334	0.18
598.673	0.17
599.012	0.17
599.351	0.18
599.69	0.17
600.029	0.18
600.368	0.18
600.707	0.17
601.046	0.18
601.384	0.18
601.723	0.18
602.061	0.17
602.4	0.18
602.738	0.17
603.077	0.17
603.415	0.17
603.754	0.17
604.092	0.17
604.43	0.17
604.768	0.17
605.107	0.17
605.445	0.17
605.783	0.16
606.121	0.16
606.459	0.17
606.796	0.16
607.134	0.16
607.472	0.16
607.81	0.17
608.148	0.16
608.485	0.17
608.823	0.17
609.16	0.16
609.498	0.17
609.835	0.17
610.173	0.16
610.51	0.17
610.847	0.17
611.185	0.17
611.522	0.18
611.859	0.17
612.196	0.18
612.533	0.17
612.87	0.18
613.207	0.17
613.544	0.17
613.881	0.19
614.217	0.18
614.554	0.17
614.891	0.17
615.228	0.18
615.564	0.17
615.901	0.17
616.237	0.17
616.574	0.17
616.91	0.18
617.246	0.17
617.583	0.18
617.919	0.18
618.255	0.18
618.591	0.17
618.927	0.18
619.263	0.18
619.599	0.19
619.935	0.18
620.271	0.18
620.607	0.17
620.943	0.18
621.279	0.18
621.614	0.18
621.95	0.17
622.286	0.17
622.621	0.17
622.957	0.17
623.292	0.16
623.627	0.16
623.963	0.16
624.298	0.17
624.633	0.17
624.968	0.16
625.304	0.16
625.639	0.16
625.974	0.17
626.309	0.15
626.644	0.17
626.979	0.17
627.313	0.17
627.648	0.16
627.983	0.16
628.318	0.15
628.652	0.16
628.987	0.16
629.321	0.16
629.656	0.15
629.99	0.15
630.325	0.16
630.659	0.15
630.993	0.15
631.327	0.15
631.662	0.14
631.996	0.15
632.33	0.16
632.664	0.16
632.998	0.14
633.332	0.16
633.666	0.16
633.999	0.15
634.333	0.15
634.667	0.15
635.001	0.14
635.334	0.15
635.668	0.15
636.001	0.15
636.335	0.16
636.668	0.15
637.001	0.14
637.335	0.15
637.668	0.15
638.001	0.15
638.334	0.14
638.668	0.14
639.001	0.15
639.334	0.14
639.667	0.14
639.999	0.15
640.332	0.14
640.665	0.15
640.998	0.14
641.331	0.14
641.663	0.14
641.996	0.14
642.328	0.15
642.661	0.15
642.993	0.14
643.326	0.15
643.658	0.14
643.99	0.13
644.323	0.14
644.655	0.14
644.987	0.14
645.319	0.15
645.651	0.14
645.983	0.14
646.315	0.13
646.647	0.14
646.979	0.15
647.31	0.14
647.642	0.14
647.974	0.14
648.305	0.15
648.637	0.14
648.968	0.15
649.3	0.15
649.631	0.14
649.963	0.14
650.294	0.15
650.625	0.14
650.957	0.15
651.288	0.14
651.619	0.14
651.95	0.14
652.281	0.15
652.612	0.14
652.943	0.14
653.274	0.14
653.604	0.14
653.935	0.14
654.266	0.14
654.596	0.13
654.927	0.13
655.258	0.15
655.588	0.15
655.918	0.14
656.249	0.12
656.579	0.13
656.909	0.14
657.24	0.14
657.57	0.14
657.9	0.14
658.23	0.14
658.56	0.15
658.89	0.14
659.22	0.14
659.55	0.14
659.88	0.14
660.209	0.14
660.539	0.15
660.869	0.15
661.198	0.15
661.528	0.15
661.857	0.14
662.187	0.15
662.516	0.14
662.846	0.14
663.175	0.14
663.504	0.14
663.833	0.14
664.163	0.14
664.492	0.13
664.821	0.14
665.15	0.13
665.479	0.14
665.807	0.14
666.136	0.14
666.465	0.13
666.794	0.14
667.122	0.13
667.451	0.13
667.78	0.14
668.108	0.13
668.437	0.13
668.765	0.14
669.093	0.14
669.422	0.13
669.75	0.14
670.078	0.13
670.406	0.13
670.734	0.13
671.062	0.14
671.39	0.13
671.718	0.13
672.046	0.13
672.374	0.13
672.702	0.13
673.029	0.13
673.357	0.13
673.685	0.14
674.012	0.13
674.34	0.13
674.667	0.14
674.995	0.13
675.322	0.13
675.649	0.12
675.977	0.13
676.304	0.13
676.631	0.13
676.958	0.13
677.285	0.13
677.612	0.13
677.939	0.13
678.266	0.13
678.593	0.13
678.92	0.13
679.246	0.13
679.573	0.12
679.9	0.12
680.226	0.13
680.553	0.12
680.879	0.13
681.206	0.13
681.532	0.12
681.858	0.12
682.184	0.12
682.511	0.12
682.837	0.12
683.163	0.12
683.489	0.12
683.815	0.12
684.141	0.12
684.467	0.12
684.793	0.11
685.118	0.12
685.444	0.12
685.77	0.12
686.095	0.12
686.421	0.12
686.746	0.12
687.072	0.12
687.397	0.12
687.723	0.13
688.048	0.13
688.373	0.12
688.698	0.13
689.023	0.13
689.349	0.12
689.674	0.13
689.999	0.12
690.323	0.11
690.648	0.11
690.973	0.11
691.298	0.11
691.623	0.12
691.947	0.12
692.272	0.12
692.596	0.12
692.921	0.12
693.245	0.11
693.57	0.12
693.894	0.12
694.218	0.12
694.543	0.11
694.867	0.11
695.191	0.11
695.515	0.11
695.839	0.11
696.163	0.11
696.487	0.11
696.811	0.11
697.135	0.12
697.458	0.11
697.782	0.11
698.106	0.11
698.429	0.11
698.753	0.11
699.076	0.11
699.4	0.11
699.723	0.11
700.046	0.1
700.37	0.11
700.693	0.11
701.016	0.11
701.339	0.11
701.662	0.11
701.985	0.11
702.308	0.11
702.631	0.11
702.954	0.11
703.277	0.11
703.599	0.11
703.922	0.1
704.245	0.1
704.567	0.09
704.89	0.1
705.212	0.1
705.535	0.09
705.857	0.1
706.179	0.09
706.502	0.1
706.824	0.09
707.146	0.09
707.468	0.1
707.79	0.1
708.112	0.1
708.434	0.1
708.756	0.09
709.078	0.1
709.399	0.09
709.721	0.1
710.043	0.1
710.364	0.1
710.686	0.1
711.007	0.1
711.329	0.1
711.65	0.1
711.972	0.1
712.293	0.1
712.614	0.1
712.935	0.1
713.256	0.1
713.577	0.11
713.898	0.09
714.219	0.1
714.54	0.1
714.861	0.09
715.182	0.1
715.503	0.09
715.823	0.09
716.144	0.09
716.464	0.09
716.785	0.09
717.105	0.09
717.426	0.09
717.746	0.08
718.066	0.08
718.387	0.08
718.707	0.08
719.027	0.08
719.347	0.08
719.667	0.08
719.987	0.08
720.307	0.08
720.627	0.08
720.947	0.09
721.266	0.08
721.586	0.08
721.906	0.08
722.225	0.07
722.545	0.08
722.864	0.08
723.184	0.08
