Data from 12-12-AQDScycling_Absorbance__495__00495.txt Node

Date: Tue Dec 12 13:00:29 EST 2023
User: kyuminlee
Spectrometer: FLMS00943
Trigger mode: 0
Integration Time (sec): 1.000000E-1
Scans to average: 1
Electric dark correction enabled: true
Nonlinearity correction enabled: false
Boxcar width: 0
XAxis mode: Wavelengths
Number of Pixels in Spectrum: 2048
>>>>>Begin Spectral Data<<<<<
179.651	-0.08
180.037	-0.08
180.424	-0.08
180.81	-0
181.197	0.29
181.583	-0
181.97	-0.26
182.356	-0
182.743	-0.8
183.129	-0
183.515	-0
183.901	-2.81
184.288	0.14
184.674	-0
185.06	-0.59
185.446	-0.24
185.832	-1.28
186.218	0.15
186.604	-0.08
186.99	-0.73
187.376	0
187.762	0.68
188.148	-0.06
188.534	-0.3
188.92	-0.02
189.305	0.17
189.691	0.15
190.077	0.15
190.463	0.08
190.848	-0
191.234	0.02
191.619	0.17
192.005	0.1
192.391	0.09
192.776	0.02
193.161	0.13
193.547	0.04
193.932	0.22
194.318	0.06
194.703	0.05
195.088	0.13
195.473	0.11
195.859	0.17
196.244	0.17
196.629	0.08
197.014	0.2
197.399	0.19
197.784	0.1
198.169	0.07
198.554	0.13
198.939	0.14
199.324	0.09
199.709	0.05
200.094	0.04
200.478	0.03
200.863	0.19
201.248	0.19
201.633	0.22
202.017	0.08
202.402	0.06
202.787	0.14
203.171	0.14
203.556	0.21
203.94	0.21
204.325	0.11
204.709	0.16
205.093	0.07
205.478	0.15
205.862	0.18
206.246	0.09
206.631	0.09
207.015	0.06
207.399	0.22
207.783	0.15
208.167	0.24
208.551	0.18
208.935	0.2
209.319	0.21
209.703	0.15
210.087	0.3
210.471	0.04
210.855	0.07
211.239	0.19
211.623	0.24
212.007	0.28
212.39	0.29
212.774	0.07
213.158	0.07
213.541	0.25
213.925	0.24
214.309	0.4
214.692	0.25
215.076	0.22
215.459	0.13
215.842	0.11
216.226	0.2
216.609	0.35
216.993	0.25
217.376	0.6
217.759	0.19
218.142	0.29
218.525	0.43
218.909	0.41
219.292	0.38
219.675	0.28
220.058	0.5
220.441	0.38
220.824	0.37
221.207	0.52
221.59	0.44
221.973	0.47
222.355	0.59
222.738	0.7
223.121	0.63
223.504	0.59
223.886	0.75
224.269	0.64
224.652	0.58
225.034	0.78
225.417	0.65
225.799	0.86
226.182	0.91
226.564	0.72
226.947	0.67
227.329	0.79
227.711	1.02
228.094	0.92
228.476	0.91
228.858	0.82
229.24	0.81
229.623	0.81
230.005	0.82
230.387	0.91
230.769	0.74
231.151	0.93
231.533	0.87
231.915	0.94
232.297	0.89
232.679	0.89
233.061	1.04
233.442	0.98
233.824	1.07
234.206	1.14
234.588	1.02
234.969	1.04
235.351	1.06
235.733	0.97
236.114	1.23
236.496	1.05
236.877	1.06
237.259	1.12
237.64	0.98
238.022	1.07
238.403	1.04
238.784	1
239.165	0.97
239.547	1.11
239.928	1.06
240.309	1.07
240.69	1.09
241.071	1.13
241.452	1.16
241.834	1.02
242.215	1.01
242.595	1.03
242.976	1.27
243.357	1.06
243.738	1.14
244.119	1.12
244.5	1.15
244.881	1.26
245.261	1.28
245.642	1.18
246.023	1.12
246.403	1.14
246.784	1.18
247.164	1.18
247.545	1.22
247.925	1.3
248.306	1.16
248.686	1.31
249.067	1.18
249.447	1.41
249.827	1.33
250.207	1.53
250.588	1.34
250.968	1.55
251.348	1.38
251.728	1.38
252.108	1.32
252.488	1.35
252.868	1.31
253.248	1.42
253.628	1.43
254.008	1.47
254.388	1.19
254.768	1.28
255.147	1.45
255.527	1.4
255.907	1.3
256.287	1.43
256.666	1.41
257.046	1.31
257.425	1.58
257.805	1.25
258.184	1.31
258.564	1.35
258.943	1.35
259.323	1.44
259.702	1.4
260.081	1.33
260.461	1.36
260.84	1.48
261.219	1.64
261.598	1.51
261.977	1.48
262.356	1.52
262.736	1.42
263.115	1.45
263.494	1.41
263.873	1.54
264.251	1.53
264.63	1.57
265.009	1.41
265.388	1.41
265.767	1.33
266.145	1.51
266.524	1.38
266.903	1.38
267.281	1.49
267.66	1.56
268.039	1.44
268.417	1.47
268.796	1.38
269.174	1.3
269.552	1.21
269.931	1.36
270.309	1.57
270.687	1.49
271.066	1.46
271.444	1.36
271.822	1.53
272.2	1.27
272.578	1.41
272.956	1.48
273.334	1.41
273.712	1.41
274.09	1.39
274.468	1.27
274.846	1.27
275.224	1.4
275.602	1.38
275.98	1.55
276.357	1.4
276.735	1.48
277.113	1.43
277.49	1.42
277.868	1.17
278.246	1.34
278.623	1.27
279.001	1.23
279.378	1.26
279.756	1.48
280.133	1.53
280.51	1.32
280.888	1.54
281.265	1.32
281.642	1.63
282.019	1.64
282.396	1.56
282.773	1.31
283.151	1.53
283.528	1.38
283.905	1.47
284.282	1.59
284.659	1.48
285.035	1.39
285.412	1.38
285.789	1.62
286.166	1.41
286.543	1.4
286.919	1.51
287.296	1.33
287.673	1.5
288.049	1.55
288.426	1.57
288.802	1.46
289.179	1.39
289.555	1.52
289.932	1.47
290.308	1.37
290.684	1.44
291.061	1.42
291.437	1.5
291.813	1.28
292.189	1.31
292.565	1.39
292.942	1.37
293.318	1.34
293.694	1.49
294.07	1.25
294.446	1.45
294.822	1.56
295.197	1.5
295.573	1.48
295.949	1.44
296.325	1.52
296.701	1.48
297.076	1.48
297.452	1.5
297.828	1.44
298.203	1.55
298.579	1.43
298.954	1.35
299.33	1.46
299.705	1.49
300.081	1.51
300.456	1.55
300.831	1.43
301.206	1.44
301.582	1.54
301.957	1.57
302.332	1.46
302.707	1.38
303.082	1.43
303.457	1.51
303.832	1.54
304.207	1.43
304.582	1.57
304.957	1.46
305.332	1.63
305.707	1.4
306.082	1.71
306.456	1.51
306.831	1.49
307.206	1.45
307.58	1.55
307.955	1.5
308.33	1.45
308.704	1.6
309.079	1.38
309.453	1.39
309.828	1.46
310.202	1.42
310.576	1.46
310.951	1.42
311.325	1.6
311.699	1.44
312.073	1.4
312.447	1.44
312.821	1.36
313.196	1.44
313.57	1.46
313.944	1.41
314.317	1.37
314.691	1.55
315.065	1.48
315.439	1.6
315.813	1.59
316.187	1.4
316.56	1.56
316.934	1.5
317.308	1.43
317.681	1.48
318.055	1.5
318.428	1.5
318.802	1.68
319.175	1.46
319.549	1.46
319.922	1.42
320.295	1.38
320.669	1.58
321.042	1.48
321.415	1.67
321.788	1.39
322.162	1.41
322.535	1.51
322.908	1.63
323.281	1.44
323.654	1.6
324.027	1.48
324.4	1.57
324.773	1.58
325.145	1.56
325.518	1.39
325.891	1.44
326.264	1.7
326.636	1.54
327.009	1.43
327.382	1.57
327.754	1.64
328.127	1.4
328.499	1.47
328.872	1.45
329.244	1.45
329.616	1.49
329.989	1.34
330.361	1.53
330.733	1.49
331.106	1.54
331.478	1.56
331.85	1.43
332.222	1.41
332.594	1.5
332.966	1.45
333.338	1.66
333.71	1.52
334.082	1.65
334.454	1.42
334.826	1.58
335.197	1.45
335.569	1.53
335.941	1.44
336.312	1.52
336.684	1.58
337.056	1.56
337.427	1.47
337.799	1.64
338.17	1.55
338.542	1.43
338.913	1.56
339.284	1.79
339.656	1.47
340.027	1.52
340.398	1.45
340.769	1.52
341.141	1.74
341.512	1.49
341.883	1.59
342.254	1.55
342.625	1.44
342.996	1.56
343.367	1.54
343.738	1.54
344.108	1.38
344.479	1.63
344.85	1.34
345.221	1.55
345.591	1.39
345.962	1.48
346.333	1.53
346.703	1.28
347.074	1.39
347.444	1.31
347.815	1.39
348.185	1.57
348.556	1.44
348.926	1.28
349.296	1.38
349.666	1.39
350.037	1.3
350.407	1.19
350.777	1.32
351.147	1.37
351.517	1.41
351.887	1.35
352.257	1.36
352.627	1.31
352.997	1.36
353.367	1.41
353.737	1.5
354.106	1.45
354.476	1.31
354.846	1.4
355.216	1.37
355.585	1.38
355.955	1.37
356.324	1.35
356.694	1.34
357.063	1.33
357.433	1.25
357.802	1.33
358.171	1.3
358.541	1.27
358.91	1.27
359.279	1.28
359.648	1.17
360.017	1.23
360.387	1.23
360.756	1.17
361.125	1.27
361.494	1.23
361.863	1.19
362.231	1.13
362.6	1.15
362.969	1.1
363.338	1.11
363.707	1.15
364.075	1.15
364.444	1.02
364.813	1.09
365.181	1.1
365.55	1.09
365.918	1.06
366.287	1.11
366.655	1.08
367.024	1.09
367.392	1.07
367.76	1.02
368.128	1.03
368.497	1.04
368.865	1.04
369.233	1.03
369.601	1
369.969	1
370.337	1.02
370.705	0.99
371.073	1.01
371.441	0.98
371.809	1.01
372.177	1
372.544	0.95
372.912	1.02
373.28	1.04
373.647	0.98
374.015	1.01
374.383	1.03
374.75	0.99
375.118	0.99
375.485	1.01
375.853	0.97
376.22	1
376.587	1
376.955	1.04
377.322	0.99
377.689	0.98
378.056	0.98
378.423	0.98
378.79	0.99
379.157	0.99
379.524	0.99
379.891	0.97
380.258	0.99
380.625	1.02
380.992	1.01
381.359	0.98
381.726	1.05
382.092	1.01
382.459	1.03
382.826	1.05
383.192	1.04
383.559	1.04
383.925	1.01
384.292	1.07
384.658	1.08
385.025	1.04
385.391	1.1
385.757	1.04
386.123	1.08
386.49	1
386.856	1.05
387.222	1.12
387.588	1.06
387.954	1.11
388.32	1.1
388.686	1.1
389.052	1.06
389.418	1.1
389.784	1.08
390.15	1.13
390.515	1.05
390.881	1.12
391.247	1.06
391.613	1.13
391.978	1.05
392.344	1.13
392.709	1.08
393.075	1.12
393.44	1.14
393.806	1.18
394.171	1.06
394.536	1.08
394.902	1.12
395.267	1.08
395.632	1.05
395.997	1.04
396.362	1.03
396.727	1.09
397.092	1.04
397.457	1.07
397.822	1
398.187	1.08
398.552	1.03
398.917	1.07
399.282	0.97
399.646	1.01
400.011	1.07
400.376	0.99
400.74	1.02
401.105	1.05
401.47	1.01
401.834	1
402.199	1.01
402.563	1
402.927	0.94
403.292	0.97
403.656	0.96
404.02	0.99
404.384	0.97
404.749	0.92
405.113	0.97
405.477	0.95
405.841	0.9
406.205	0.92
406.569	0.88
406.933	0.86
407.296	0.87
407.66	0.9
408.024	0.89
408.388	0.91
408.752	0.87
409.115	0.88
409.479	0.91
409.842	0.89
410.206	0.83
410.569	0.84
410.933	0.84
411.296	0.81
411.66	0.85
412.023	0.79
412.386	0.83
412.749	0.81
413.113	0.8
413.476	0.74
413.839	0.8
414.202	0.79
414.565	0.78
414.928	0.8
415.291	0.74
415.654	0.77
416.017	0.76
416.38	0.78
416.742	0.74
417.105	0.73
417.468	0.73
417.83	0.78
418.193	0.75
418.556	0.74
418.918	0.75
419.281	0.74
419.643	0.75
420.005	0.72
420.368	0.75
420.73	0.75
421.092	0.73
421.455	0.75
421.817	0.71
422.179	0.71
422.541	0.72
422.903	0.73
423.265	0.73
423.627	0.7
423.989	0.7
424.351	0.7
424.713	0.73
425.075	0.7
425.436	0.69
425.798	0.69
426.16	0.69
426.521	0.7
426.883	0.72
427.245	0.68
427.606	0.68
427.967	0.66
428.329	0.69
428.69	0.69
429.052	0.68
429.413	0.69
429.774	0.69
430.135	0.67
430.497	0.68
430.858	0.65
431.219	0.66
431.58	0.65
431.941	0.66
432.302	0.66
432.663	0.67
433.024	0.67
433.384	0.68
433.745	0.65
434.106	0.66
434.467	0.65
434.827	0.65
435.188	0.63
435.548	0.66
435.909	0.64
436.269	0.65
436.63	0.62
436.99	0.63
437.351	0.63
437.711	0.62
438.071	0.6
438.431	0.62
438.792	0.6
439.152	0.63
439.512	0.59
439.872	0.63
440.232	0.62
440.592	0.6
440.952	0.6
441.312	0.61
441.671	0.6
442.031	0.58
442.391	0.58
442.751	0.6
443.11	0.57
443.47	0.57
443.83	0.58
444.189	0.55
444.549	0.58
444.908	0.56
445.267	0.57
445.627	0.56
445.986	0.54
446.345	0.54
446.705	0.54
447.064	0.53
447.423	0.54
447.782	0.55
448.141	0.54
448.5	0.52
448.859	0.53
449.218	0.52
449.577	0.53
449.936	0.54
450.295	0.52
450.653	0.51
451.012	0.52
451.371	0.52
451.729	0.52
452.088	0.53
452.447	0.51
452.805	0.52
453.163	0.5
453.522	0.5
453.88	0.49
454.239	0.49
454.597	0.49
454.955	0.48
455.313	0.47
455.671	0.47
456.029	0.46
456.388	0.45
456.746	0.46
457.104	0.45
457.461	0.44
457.819	0.45
458.177	0.44
458.535	0.44
458.893	0.44
459.25	0.43
459.608	0.43
459.966	0.42
460.323	0.41
460.681	0.41
461.038	0.41
461.396	0.4
461.753	0.4
462.111	0.39
462.468	0.39
462.825	0.38
463.182	0.38
463.54	0.38
463.897	0.38
464.254	0.38
464.611	0.37
464.968	0.37
465.325	0.36
465.682	0.36
466.039	0.36
466.395	0.36
466.752	0.35
467.109	0.34
467.466	0.35
467.822	0.34
468.179	0.34
468.535	0.33
468.892	0.34
469.248	0.32
469.605	0.32
469.961	0.32
470.318	0.33
470.674	0.31
471.03	0.31
471.386	0.31
471.743	0.3
472.099	0.3
472.455	0.29
472.811	0.3
473.167	0.29
473.523	0.28
473.879	0.29
474.235	0.27
474.59	0.27
474.946	0.26
475.302	0.26
475.657	0.26
476.013	0.25
476.369	0.25
476.724	0.26
477.08	0.26
477.435	0.25
477.791	0.24
478.146	0.25
478.501	0.25
478.857	0.24
479.212	0.24
479.567	0.23
479.922	0.23
480.277	0.23
480.632	0.23
480.987	0.23
481.342	0.23
481.697	0.22
482.052	0.21
482.407	0.21
482.762	0.21
483.116	0.21
483.471	0.2
483.826	0.2
484.18	0.2
484.535	0.2
484.89	0.2
485.244	0.2
485.598	0.2
485.953	0.19
486.307	0.19
486.661	0.19
487.016	0.18
487.37	0.19
487.724	0.18
488.078	0.18
488.432	0.19
488.786	0.18
489.14	0.18
489.494	0.18
489.848	0.17
490.202	0.17
490.556	0.17
490.91	0.17
491.263	0.17
491.617	0.17
491.971	0.16
492.324	0.17
492.678	0.17
493.031	0.17
493.385	0.17
493.738	0.16
494.091	0.16
494.445	0.16
494.798	0.16
495.151	0.16
495.504	0.15
495.857	0.15
496.21	0.16
496.564	0.15
496.916	0.15
497.269	0.14
497.622	0.14
497.975	0.15
498.328	0.15
498.681	0.15
499.033	0.14
499.386	0.14
499.739	0.14
500.091	0.14
500.444	0.15
500.796	0.14
501.149	0.14
501.501	0.14
501.854	0.14
502.206	0.14
502.558	0.13
502.91	0.14
503.263	0.13
503.615	0.13
503.967	0.14
504.319	0.14
504.671	0.13
505.023	0.13
505.375	0.13
505.726	0.13
506.078	0.13
506.43	0.13
506.782	0.13
507.133	0.14
507.485	0.14
507.837	0.14
508.188	0.13
508.54	0.14
508.891	0.13
509.243	0.13
509.594	0.13
509.945	0.13
510.296	0.12
510.648	0.14
510.999	0.13
511.35	0.12
511.701	0.13
512.052	0.13
512.403	0.13
512.754	0.13
513.105	0.12
513.456	0.12
513.807	0.12
514.157	0.13
514.508	0.13
514.859	0.12
515.209	0.13
515.56	0.13
515.91	0.13
516.261	0.13
516.611	0.13
516.962	0.13
517.312	0.13
517.662	0.13
518.013	0.13
518.363	0.13
518.713	0.13
519.063	0.13
519.413	0.13
519.763	0.13
520.113	0.13
520.463	0.13
520.813	0.14
521.163	0.14
521.512	0.12
521.862	0.13
522.212	0.14
522.562	0.13
522.911	0.13
523.261	0.13
523.61	0.13
523.96	0.12
524.309	0.14
524.658	0.13
525.008	0.13
525.357	0.12
525.706	0.13
526.056	0.12
526.405	0.13
526.754	0.13
527.103	0.12
527.452	0.13
527.801	0.13
528.15	0.13
528.499	0.12
528.847	0.13
529.196	0.14
529.545	0.13
529.893	0.13
530.242	0.13
530.591	0.14
530.939	0.14
531.288	0.13
531.636	0.15
531.985	0.13
532.333	0.13
532.681	0.14
533.029	0.13
533.378	0.14
533.726	0.14
534.074	0.15
534.422	0.13
534.77	0.14
535.118	0.14
535.466	0.14
535.814	0.13
536.162	0.13
536.509	0.14
536.857	0.13
537.205	0.14
537.552	0.14
537.9	0.14
538.248	0.13
538.595	0.14
538.943	0.14
539.29	0.13
539.637	0.14
539.985	0.14
540.332	0.14
540.679	0.13
541.026	0.14
541.373	0.14
541.721	0.13
542.068	0.14
542.415	0.14
542.762	0.13
543.108	0.12
543.455	0.13
543.802	0.13
544.149	0.13
544.496	0.12
544.842	0.13
545.189	0.12
545.535	0.13
545.882	0.13
546.228	0.13
546.575	0.13
546.921	0.12
547.267	0.13
547.614	0.13
547.96	0.12
548.306	0.13
548.652	0.13
548.998	0.13
549.344	0.13
549.69	0.13
550.036	0.12
550.382	0.12
550.728	0.13
551.074	0.13
551.42	0.12
551.765	0.13
552.111	0.14
552.457	0.14
552.802	0.13
553.148	0.13
553.493	0.14
553.839	0.13
554.184	0.13
554.529	0.12
554.875	0.13
555.22	0.14
555.565	0.14
555.91	0.13
556.255	0.14
556.6	0.13
556.945	0.12
557.29	0.13
557.635	0.14
557.98	0.14
558.325	0.14
558.67	0.13
559.014	0.14
559.359	0.14
559.704	0.14
560.048	0.13
560.393	0.14
560.737	0.12
561.082	0.13
561.426	0.13
561.77	0.14
562.115	0.14
562.459	0.13
562.803	0.13
563.147	0.14
563.491	0.13
563.835	0.14
564.179	0.14
564.523	0.13
564.867	0.13
565.211	0.14
565.555	0.14
565.899	0.14
566.242	0.13
566.586	0.13
566.93	0.13
567.273	0.14
567.617	0.14
567.96	0.14
568.304	0.14
568.647	0.13
568.99	0.13
569.334	0.15
569.677	0.14
570.02	0.14
570.363	0.14
570.706	0.14
571.049	0.14
571.392	0.14
571.735	0.14
572.078	0.14
572.421	0.14
572.764	0.14
573.106	0.14
573.449	0.13
573.792	0.14
574.134	0.14
574.477	0.14
574.819	0.14
575.162	0.13
575.504	0.13
575.847	0.13
576.189	0.13
576.531	0.13
576.873	0.14
577.215	0.13
577.558	0.14
577.9	0.13
578.242	0.14
578.584	0.14
578.926	0.14
579.267	0.14
579.609	0.14
579.951	0.13
580.293	0.13
580.634	0.14
580.976	0.14
581.318	0.13
581.659	0.13
582.001	0.14
582.342	0.12
582.683	0.14
583.025	0.13
583.366	0.13
583.707	0.14
584.049	0.13
584.39	0.14
584.731	0.12
585.072	0.13
585.413	0.14
585.754	0.13
586.095	0.13
586.435	0.14
586.776	0.13
587.117	0.13
587.458	0.13
587.798	0.14
588.139	0.13
588.48	0.13
588.82	0.13
589.161	0.13
589.501	0.13
589.841	0.14
590.182	0.13
590.522	0.13
590.862	0.13
591.202	0.13
591.542	0.13
591.882	0.13
592.222	0.13
592.562	0.13
592.902	0.14
593.242	0.13
593.582	0.14
593.922	0.14
594.261	0.13
594.601	0.13
594.941	0.12
595.28	0.14
595.62	0.13
595.959	0.13
596.299	0.14
596.638	0.13
596.977	0.13
597.317	0.14
597.656	0.14
597.995	0.14
598.334	0.14
598.673	0.13
599.012	0.13
599.351	0.14
599.69	0.14
600.029	0.14
600.368	0.14
600.707	0.14
601.046	0.13
601.384	0.14
601.723	0.14
602.061	0.13
602.4	0.14
602.738	0.14
603.077	0.14
603.415	0.13
603.754	0.14
604.092	0.14
604.43	0.13
604.768	0.14
605.107	0.14
605.445	0.13
605.783	0.13
606.121	0.13
606.459	0.13
606.796	0.13
607.134	0.12
607.472	0.12
607.81	0.13
608.148	0.13
608.485	0.13
608.823	0.13
609.16	0.13
609.498	0.13
609.835	0.12
610.173	0.13
610.51	0.13
610.847	0.13
611.185	0.13
611.522	0.13
611.859	0.14
612.196	0.14
612.533	0.14
612.87	0.14
613.207	0.14
613.544	0.14
613.881	0.15
614.217	0.14
614.554	0.14
614.891	0.14
615.228	0.14
615.564	0.14
615.901	0.14
616.237	0.14
616.574	0.14
616.91	0.14
617.246	0.15
617.583	0.15
617.919	0.14
618.255	0.14
618.591	0.14
618.927	0.14
619.263	0.15
619.599	0.15
619.935	0.14
620.271	0.15
620.607	0.14
620.943	0.14
621.279	0.15
621.614	0.14
621.95	0.14
622.286	0.14
622.621	0.13
622.957	0.14
623.292	0.14
623.627	0.14
623.963	0.13
624.298	0.13
624.633	0.14
624.968	0.13
625.304	0.14
625.639	0.13
625.974	0.13
626.309	0.13
626.644	0.12
626.979	0.14
627.313	0.13
627.648	0.13
627.983	0.13
628.318	0.13
628.652	0.12
628.987	0.13
629.321	0.13
629.656	0.12
629.99	0.12
630.325	0.12
630.659	0.12
630.993	0.12
631.327	0.12
631.662	0.12
631.996	0.12
632.33	0.12
632.664	0.12
632.998	0.12
633.332	0.12
633.666	0.12
633.999	0.13
634.333	0.12
634.667	0.12
635.001	0.12
635.334	0.12
635.668	0.12
636.001	0.12
636.335	0.12
636.668	0.12
637.001	0.12
637.335	0.12
637.668	0.12
638.001	0.12
638.334	0.12
638.668	0.11
639.001	0.12
639.334	0.12
639.667	0.11
639.999	0.12
640.332	0.12
640.665	0.11
640.998	0.12
641.331	0.12
641.663	0.11
641.996	0.11
642.328	0.12
642.661	0.12
642.993	0.11
643.326	0.11
643.658	0.11
643.99	0.1
644.323	0.11
644.655	0.11
644.987	0.12
645.319	0.11
645.651	0.11
645.983	0.11
646.315	0.11
646.647	0.11
646.979	0.12
647.31	0.12
647.642	0.11
647.974	0.11
648.305	0.12
648.637	0.11
648.968	0.12
649.3	0.12
649.631	0.12
649.963	0.11
650.294	0.12
650.625	0.11
650.957	0.12
651.288	0.12
651.619	0.12
651.95	0.13
652.281	0.12
652.612	0.11
652.943	0.12
653.274	0.12
653.604	0.12
653.935	0.11
654.266	0.12
654.596	0.12
654.927	0.11
655.258	0.12
655.588	0.12
655.918	0.12
656.249	0.1
656.579	0.11
656.909	0.11
657.24	0.11
657.57	0.13
657.9	0.12
658.23	0.11
658.56	0.12
658.89	0.12
659.22	0.11
659.55	0.12
659.88	0.11
660.209	0.11
660.539	0.12
660.869	0.12
661.198	0.12
661.528	0.12
661.857	0.11
662.187	0.11
662.516	0.12
662.846	0.11
663.175	0.12
663.504	0.12
663.833	0.11
664.163	0.11
664.492	0.11
664.821	0.12
665.15	0.11
665.479	0.11
665.807	0.12
666.136	0.12
666.465	0.11
666.794	0.11
667.122	0.12
667.451	0.11
667.78	0.12
668.108	0.12
668.437	0.11
668.765	0.11
669.093	0.11
669.422	0.11
669.75	0.11
670.078	0.11
670.406	0.11
670.734	0.11
671.062	0.11
671.39	0.11
671.718	0.11
672.046	0.1
672.374	0.1
672.702	0.11
673.029	0.1
673.357	0.11
673.685	0.12
674.012	0.11
674.34	0.11
674.667	0.12
674.995	0.11
675.322	0.12
675.649	0.1
675.977	0.11
676.304	0.11
676.631	0.11
676.958	0.1
677.285	0.1
677.612	0.1
677.939	0.11
678.266	0.11
678.593	0.1
678.92	0.11
679.246	0.1
679.573	0.1
679.9	0.1
680.226	0.11
680.553	0.1
680.879	0.11
681.206	0.11
681.532	0.1
681.858	0.1
682.184	0.1
682.511	0.11
682.837	0.1
683.163	0.1
683.489	0.1
683.815	0.1
684.141	0.1
684.467	0.1
684.793	0.1
685.118	0.09
685.444	0.1
685.77	0.09
686.095	0.1
686.421	0.1
686.746	0.1
687.072	0.11
687.397	0.1
687.723	0.11
688.048	0.11
688.373	0.1
688.698	0.1
689.023	0.1
689.349	0.1
689.674	0.1
689.999	0.1
690.323	0.1
690.648	0.09
690.973	0.09
691.298	0.09
691.623	0.1
691.947	0.1
692.272	0.1
692.596	0.1
692.921	0.1
693.245	0.1
693.57	0.11
693.894	0.11
694.218	0.1
694.543	0.1
694.867	0.1
695.191	0.09
695.515	0.1
695.839	0.09
696.163	0.1
696.487	0.1
696.811	0.09
697.135	0.1
697.458	0.1
697.782	0.1
698.106	0.1
698.429	0.1
698.753	0.09
699.076	0.09
699.4	0.09
699.723	0.09
700.046	0.09
700.37	0.1
700.693	0.1
701.016	0.09
701.339	0.1
701.662	0.1
701.985	0.1
702.308	0.09
702.631	0.1
702.954	0.09
703.277	0.09
703.599	0.1
703.922	0.09
704.245	0.09
704.567	0.09
704.89	0.09
705.212	0.09
705.535	0.09
705.857	0.08
706.179	0.08
706.502	0.08
706.824	0.07
707.146	0.08
707.468	0.09
707.79	0.09
708.112	0.09
708.434	0.09
708.756	0.09
709.078	0.09
709.399	0.08
709.721	0.09
710.043	0.09
710.364	0.09
710.686	0.09
711.007	0.08
711.329	0.09
711.65	0.09
711.972	0.09
712.293	0.1
712.614	0.09
712.935	0.09
713.256	0.09
713.577	0.1
713.898	0.09
714.219	0.09
714.54	0.09
714.861	0.08
715.182	0.09
715.503	0.08
715.823	0.08
716.144	0.08
716.464	0.07
716.785	0.08
717.105	0.08
717.426	0.09
717.746	0.08
718.066	0.07
718.387	0.08
718.707	0.07
719.027	0.08
719.347	0.06
719.667	0.07
719.987	0.07
720.307	0.07
720.627	0.07
720.947	0.07
721.266	0.07
721.586	0.07
721.906	0.07
722.225	0.07
722.545	0.07
722.864	0.07
723.184	0.08
723.503	0.07
723.823	0.08
724.142	0.07
724.461	0.07
