Data from 12-12-AQDScycling_Absorbance__82__00082.txt Node

Date: Tue Dec 12 11:17:14 EST 2023
User: kyuminlee
Spectrometer: FLMS00943
Trigger mode: 0
Integration Time (sec): 1.000000E-1
Scans to average: 1
Electric dark correction enabled: true
Nonlinearity correction enabled: false
Boxcar width: 0
XAxis mode: Wavelengths
Number of Pixels in Spectrum: 2048
>>>>>Begin Spectral Data<<<<<
179.651	-0
180.037	-0
180.424	-0
180.81	0.12
181.197	0.28
181.583	0.28
181.97	-0
182.356	-0.98
182.743	-1.1
183.129	0.53
183.515	0.61
183.901	-1.71
184.288	0.67
184.674	-0
185.06	-0.54
185.446	-0
185.832	-0
186.218	0.1
186.604	0.81
186.99	-0
187.376	-0
187.762	-0
188.148	0.59
188.534	-0.27
188.92	0
189.305	0.09
189.691	0.21
190.077	0.25
190.463	0.07
190.848	0.07
191.234	0.04
191.619	0.12
192.005	0.06
192.391	0.17
192.776	0.29
193.161	0.29
193.547	0.2
193.932	0.11
194.318	0.16
194.703	0.21
195.088	0.14
195.473	0.2
195.859	0.24
196.244	0.18
196.629	0.14
197.014	0.33
197.399	0.28
197.784	0.11
198.169	0.08
198.554	0.21
198.939	0.15
199.324	0.11
199.709	0.14
200.094	0.11
200.478	0.11
200.863	0.19
201.248	0.18
201.633	0.19
202.017	0.17
202.402	0.27
202.787	-0.01
203.171	0.28
203.556	0.23
203.94	0.22
204.325	0.24
204.709	0.32
205.093	0.17
205.478	0.26
205.862	0.16
206.246	0.15
206.631	0.19
207.015	0.26
207.399	0.24
207.783	0.14
208.167	0.13
208.551	0.16
208.935	0.16
209.319	0.18
209.703	0.14
210.087	0.16
210.471	0.12
210.855	0.14
211.239	0.16
211.623	0.29
212.007	0.25
212.39	0.28
212.774	0.22
213.158	0.17
213.541	0.31
213.925	0.12
214.309	0.38
214.692	0.33
215.076	0.22
215.459	0.21
215.842	0.19
216.226	0.36
216.609	0.28
216.993	0.26
217.376	0.45
217.759	0.21
218.142	0.23
218.525	0.47
218.909	0.31
219.292	0.37
219.675	0.46
220.058	0.44
220.441	0.63
220.824	0.52
221.207	0.86
221.59	0.48
221.973	0.48
222.355	0.63
222.738	0.85
223.121	0.59
223.504	0.53
223.886	0.62
224.269	0.89
224.652	0.77
225.034	0.87
225.417	0.71
225.799	0.89
226.182	0.69
226.564	0.7
226.947	0.86
227.329	0.99
227.711	1.17
228.094	0.83
228.476	0.95
228.858	0.76
229.24	0.82
229.623	0.99
230.005	0.85
230.387	0.9
230.769	0.82
231.151	0.93
231.533	0.84
231.915	1.03
232.297	1.07
232.679	0.97
233.061	1.03
233.442	1.04
233.824	1.03
234.206	1.07
234.588	1.1
234.969	1.11
235.351	1.02
235.733	1.07
236.114	1.17
236.496	1.08
236.877	1.17
237.259	1.09
237.64	1.06
238.022	1.05
238.403	1.03
238.784	0.96
239.165	0.94
239.547	1
239.928	1.1
240.309	1.02
240.69	1.07
241.071	1.03
241.452	1.18
241.834	1.05
242.215	1.11
242.595	1.19
242.976	1.14
243.357	1.21
243.738	1.15
244.119	1.2
244.5	1.16
244.881	1.25
245.261	1.23
245.642	1.25
246.023	1.11
246.403	1.15
246.784	1.12
247.164	1.21
247.545	1.29
247.925	1.23
248.306	1.13
248.686	1.34
249.067	1.28
249.447	1.4
249.827	1.51
250.207	1.52
250.588	1.3
250.968	1.47
251.348	1.34
251.728	1.48
252.108	1.43
252.488	1.36
252.868	1.47
253.248	1.25
253.628	1.34
254.008	1.55
254.388	1.26
254.768	1.28
255.147	1.46
255.527	1.46
255.907	1.39
256.287	1.41
256.666	1.41
257.046	1.6
257.425	1.45
257.805	1.34
258.184	1.3
258.564	1.3
258.943	1.26
259.323	1.44
259.702	1.4
260.081	1.45
260.461	1.52
260.84	1.59
261.219	1.71
261.598	1.47
261.977	1.39
262.356	1.43
262.736	1.49
263.115	1.58
263.494	1.37
263.873	1.52
264.251	1.59
264.63	1.52
265.009	1.55
265.388	1.42
265.767	1.32
266.145	1.51
266.524	1.49
266.903	1.5
267.281	1.39
267.66	1.39
268.039	1.57
268.417	1.36
268.796	1.48
269.174	1.49
269.552	1.34
269.931	1.48
270.309	1.47
270.687	1.44
271.066	1.7
271.444	1.46
271.822	1.55
272.2	1.4
272.578	1.37
272.956	1.45
273.334	1.46
273.712	1.41
274.09	1.51
274.468	1.45
274.846	1.28
275.224	1.35
275.602	1.55
275.98	1.55
276.357	1.39
276.735	1.5
277.113	1.39
277.49	1.43
277.868	1.37
278.246	1.38
278.623	1.34
279.001	1.37
279.378	1.41
279.756	1.47
280.133	1.53
280.51	1.5
280.888	1.52
281.265	1.36
281.642	1.53
282.019	1.72
282.396	1.52
282.773	1.46
283.151	1.42
283.528	1.81
283.905	1.39
284.282	1.43
284.659	1.58
285.035	1.33
285.412	1.46
285.789	1.57
286.166	1.41
286.543	1.33
286.919	1.59
287.296	1.54
287.673	1.72
288.049	1.41
288.426	1.75
288.802	1.62
289.179	1.57
289.555	1.62
289.932	1.47
290.308	1.36
290.684	1.37
291.061	1.36
291.437	1.48
291.813	1.28
292.189	1.37
292.565	1.27
292.942	1.43
293.318	1.35
293.694	1.34
294.07	1.38
294.446	1.58
294.822	1.59
295.197	1.48
295.573	1.57
295.949	1.44
296.325	1.49
296.701	1.44
297.076	1.52
297.452	1.71
297.828	1.51
298.203	1.56
298.579	1.5
298.954	1.39
299.33	1.37
299.705	1.47
300.081	1.44
300.456	1.4
300.831	1.41
301.206	1.4
301.582	1.53
301.957	1.41
302.332	1.53
302.707	1.31
303.082	1.32
303.457	1.31
303.832	1.34
304.207	1.31
304.582	1.22
304.957	1.36
305.332	1.27
305.707	1.24
306.082	1.28
306.456	1.26
306.831	1.24
307.206	1.23
307.58	1.27
307.955	1.16
308.33	1.17
308.704	1.21
309.079	1.15
309.453	1.19
309.828	1.17
310.202	1.09
310.576	1.15
310.951	1.26
311.325	1.14
311.699	1.15
312.073	1.08
312.447	1.1
312.821	1.08
313.196	1.13
313.57	1.09
313.944	1.04
314.317	1.05
314.691	1.13
315.065	1.17
315.439	1.11
315.813	1.05
316.187	1.11
316.56	1.13
316.934	1.11
317.308	1.07
317.681	1.11
318.055	1.13
318.428	1.12
318.802	1.09
319.175	1.12
319.549	1.15
319.922	1.03
320.295	1.11
320.669	1.16
321.042	1.07
321.415	1.12
321.788	1.08
322.162	1.06
322.535	1.15
322.908	1.08
323.281	1.09
323.654	1.14
324.027	1.12
324.4	1.1
324.773	1.08
325.145	1.16
325.518	1.09
325.891	1.14
326.264	1.18
326.636	1.06
327.009	1.13
327.382	1.14
327.754	1.17
328.127	1.07
328.499	1.16
328.872	1.1
329.244	1.12
329.616	1.11
329.989	1.12
330.361	1.12
330.733	1.08
331.106	1.18
331.478	1.16
331.85	1.13
332.222	1.17
332.594	1.16
332.966	1.2
333.338	1.25
333.71	1.17
334.082	1.24
334.454	1.23
334.826	1.24
335.197	1.22
335.569	1.27
335.941	1.16
336.312	1.2
336.684	1.13
337.056	1.18
337.427	1.29
337.799	1.22
338.17	1.18
338.542	1.16
338.913	1.26
339.284	1.3
339.656	1.28
340.027	1.24
340.398	1.24
340.769	1.2
341.141	1.31
341.512	1.2
341.883	1.26
342.254	1.22
342.625	1.25
342.996	1.27
343.367	1.33
343.738	1.23
344.108	1.21
344.479	1.31
344.85	1.19
345.221	1.32
345.591	1.16
345.962	1.26
346.333	1.28
346.703	1.17
347.074	1.22
347.444	1.19
347.815	1.22
348.185	1.33
348.556	1.22
348.926	1.24
349.296	1.29
349.666	1.35
350.037	1.19
350.407	1.22
350.777	1.22
351.147	1.38
351.517	1.34
351.887	1.29
352.257	1.37
352.627	1.15
352.997	1.31
353.367	1.31
353.737	1.34
354.106	1.33
354.476	1.29
354.846	1.39
355.216	1.41
355.585	1.46
355.955	1.41
356.324	1.37
356.694	1.45
357.063	1.39
357.433	1.3
357.802	1.43
358.171	1.45
358.541	1.44
358.91	1.49
359.279	1.48
359.648	1.39
360.017	1.45
360.387	1.49
360.756	1.41
361.125	1.64
361.494	1.66
361.863	1.46
362.231	1.43
362.6	1.4
362.969	1.52
363.338	1.42
363.707	1.65
364.075	1.64
364.444	1.32
364.813	1.35
365.181	1.44
365.55	1.41
365.918	1.66
366.287	1.56
366.655	1.59
367.024	1.53
367.392	1.57
367.76	1.54
368.128	1.51
368.497	1.47
368.865	1.58
369.233	1.59
369.601	1.51
369.969	1.49
370.337	1.67
370.705	1.45
371.073	1.47
371.441	1.49
371.809	1.52
372.177	1.41
372.544	1.51
372.912	1.5
373.28	1.48
373.647	1.65
374.015	1.74
374.383	1.89
374.75	1.71
375.118	1.52
375.485	1.55
375.853	1.57
376.22	1.54
376.587	1.49
376.955	1.57
377.322	1.65
377.689	1.53
378.056	1.49
378.423	1.62
378.79	1.55
379.157	1.56
379.524	1.57
379.891	1.58
380.258	1.61
380.625	1.57
380.992	1.48
381.359	1.6
381.726	1.58
382.092	1.66
382.459	1.61
382.826	1.55
383.192	1.55
383.559	1.6
383.925	1.55
384.292	1.59
384.658	1.81
385.025	1.67
385.391	1.76
385.757	1.59
386.123	1.57
386.49	1.59
386.856	1.6
387.222	1.62
387.588	1.46
387.954	1.79
388.32	1.84
388.686	1.63
389.052	1.59
389.418	1.59
389.784	1.55
390.15	1.66
390.515	1.44
390.881	1.59
391.247	1.48
391.613	1.78
391.978	1.56
392.344	1.68
392.709	1.6
393.075	1.56
393.44	1.58
393.806	1.53
394.171	1.47
394.536	1.56
394.902	1.54
395.267	1.66
395.632	1.58
395.997	1.53
396.362	1.56
396.727	1.79
397.092	1.56
397.457	1.52
397.822	1.43
398.187	1.68
398.552	1.54
398.917	1.87
399.282	1.53
399.646	1.52
400.011	1.82
400.376	1.53
400.74	1.6
401.105	1.55
401.47	1.56
401.834	1.54
402.199	1.58
402.563	1.6
402.927	1.4
403.292	1.54
403.656	1.53
404.02	1.48
404.384	1.58
404.749	1.59
405.113	1.66
405.477	1.68
405.841	1.53
406.205	1.58
406.569	1.58
406.933	1.59
407.296	1.61
407.66	1.6
408.024	1.59
408.388	1.57
408.752	1.57
409.115	1.68
409.479	1.58
409.842	1.53
410.206	1.46
410.569	1.6
410.933	1.5
411.296	1.35
411.66	1.55
412.023	1.34
412.386	1.55
412.749	1.39
413.113	1.48
413.476	1.5
413.839	1.4
414.202	1.49
414.565	1.47
414.928	1.39
415.291	1.36
415.654	1.37
416.017	1.64
416.38	1.41
416.742	1.47
417.105	1.39
417.468	1.4
417.83	1.58
418.193	1.51
418.556	1.55
418.918	1.41
419.281	1.46
419.643	1.67
420.005	1.45
420.368	1.56
420.73	1.47
421.092	1.54
421.455	1.54
421.817	1.39
422.179	1.46
422.541	1.55
422.903	1.5
423.265	1.6
423.627	1.46
423.989	1.46
424.351	1.42
424.713	1.39
425.075	1.35
425.436	1.47
425.798	1.42
426.16	1.54
426.521	1.47
426.883	1.49
427.245	1.54
427.606	1.41
427.967	1.31
428.329	1.4
428.69	1.56
429.052	1.43
429.413	1.52
429.774	1.48
430.135	1.42
430.497	1.46
430.858	1.44
431.219	1.46
431.58	1.42
431.941	1.37
432.302	1.36
432.663	1.38
433.024	1.59
433.384	1.42
433.745	1.32
434.106	1.47
434.467	1.29
434.827	1.47
435.188	1.42
435.548	1.48
435.909	1.4
436.269	1.51
436.63	1.35
436.99	1.37
437.351	1.28
437.711	1.38
438.071	1.39
438.431	1.32
438.792	1.4
439.152	1.32
439.512	1.27
439.872	1.35
440.232	1.41
440.592	1.36
440.952	1.32
441.312	1.25
441.671	1.25
442.031	1.26
442.391	1.32
442.751	1.32
443.11	1.33
443.47	1.23
443.83	1.23
444.189	1.26
444.549	1.22
444.908	1.28
445.267	1.26
445.627	1.22
445.986	1.23
446.345	1.22
446.705	1.21
447.064	1.23
447.423	1.22
447.782	1.18
448.141	1.18
448.5	1.16
448.859	1.15
449.218	1.18
449.577	1.16
449.936	1.16
450.295	1.16
450.653	1.12
451.012	1.12
451.371	1.13
451.729	1.1
452.088	1.13
452.447	1.13
452.805	1.11
453.163	1.12
453.522	1.07
453.88	1.05
454.239	1.09
454.597	1.05
454.955	1.03
455.313	1
455.671	1.03
456.029	1.01
456.388	1.01
456.746	0.99
457.104	0.99
457.461	0.96
457.819	0.94
458.177	0.94
458.535	0.93
458.893	0.92
459.25	0.92
459.608	0.93
459.966	0.87
460.323	0.86
460.681	0.86
461.038	0.85
461.396	0.84
461.753	0.84
462.111	0.83
462.468	0.8
462.825	0.8
463.182	0.8
463.54	0.79
463.897	0.78
464.254	0.78
464.611	0.76
464.968	0.73
465.325	0.75
465.682	0.71
466.039	0.72
466.395	0.7
466.752	0.7
467.109	0.68
467.466	0.68
467.822	0.67
468.179	0.65
468.535	0.66
468.892	0.63
469.248	0.63
469.605	0.62
469.961	0.61
470.318	0.61
470.674	0.6
471.03	0.59
471.386	0.57
471.743	0.56
472.099	0.55
472.455	0.55
472.811	0.53
473.167	0.53
473.523	0.51
473.879	0.51
474.235	0.5
474.59	0.49
474.946	0.49
475.302	0.48
475.657	0.47
476.013	0.47
476.369	0.47
476.724	0.46
477.08	0.45
477.435	0.45
477.791	0.43
478.146	0.44
478.501	0.42
478.857	0.42
479.212	0.41
479.567	0.4
479.922	0.39
480.277	0.39
480.632	0.38
480.987	0.37
481.342	0.37
481.697	0.36
482.052	0.36
482.407	0.35
482.762	0.34
483.116	0.34
483.471	0.33
483.826	0.32
484.18	0.33
484.535	0.31
484.89	0.31
485.244	0.31
485.598	0.31
485.953	0.3
486.307	0.3
486.661	0.3
487.016	0.28
487.37	0.28
487.724	0.27
488.078	0.27
488.432	0.27
488.786	0.27
489.14	0.26
489.494	0.25
489.848	0.25
490.202	0.26
490.556	0.25
490.91	0.25
491.263	0.24
491.617	0.24
491.971	0.24
492.324	0.23
492.678	0.23
493.031	0.24
493.385	0.23
493.738	0.22
494.091	0.22
494.445	0.22
494.798	0.21
495.151	0.21
495.504	0.21
495.857	0.21
496.21	0.21
496.564	0.2
496.916	0.21
497.269	0.19
497.622	0.2
497.975	0.2
498.328	0.2
498.681	0.2
499.033	0.19
499.386	0.19
499.739	0.18
500.091	0.18
500.444	0.18
500.796	0.18
501.149	0.18
501.501	0.19
501.854	0.18
502.206	0.17
502.558	0.18
502.91	0.18
503.263	0.17
503.615	0.17
503.967	0.17
504.319	0.17
504.671	0.16
505.023	0.17
505.375	0.16
505.726	0.16
506.078	0.16
506.43	0.15
506.782	0.15
507.133	0.15
507.485	0.16
507.837	0.16
508.188	0.16
508.54	0.15
508.891	0.17
509.243	0.15
509.594	0.15
509.945	0.15
510.296	0.15
510.648	0.16
510.999	0.15
511.35	0.15
511.701	0.15
512.052	0.15
512.403	0.15
512.754	0.14
513.105	0.14
513.456	0.14
513.807	0.14
514.157	0.14
514.508	0.13
514.859	0.13
515.209	0.13
515.56	0.13
515.91	0.13
516.261	0.14
516.611	0.13
516.962	0.14
517.312	0.14
517.662	0.14
518.013	0.13
518.363	0.14
518.713	0.14
519.063	0.14
519.413	0.14
519.763	0.13
520.113	0.13
520.463	0.14
520.813	0.14
521.163	0.14
521.512	0.14
521.862	0.13
522.212	0.14
522.562	0.14
522.911	0.14
523.261	0.13
523.61	0.13
523.96	0.13
524.309	0.14
524.658	0.14
525.008	0.13
525.357	0.13
525.706	0.14
526.056	0.13
526.405	0.14
526.754	0.13
527.103	0.13
527.452	0.14
527.801	0.14
528.15	0.14
528.499	0.14
528.847	0.14
529.196	0.14
529.545	0.14
529.893	0.14
530.242	0.14
530.591	0.14
530.939	0.14
531.288	0.14
531.636	0.14
531.985	0.13
532.333	0.14
532.681	0.13
533.029	0.13
533.378	0.13
533.726	0.13
534.074	0.13
534.422	0.13
534.77	0.13
535.118	0.13
535.466	0.14
535.814	0.13
536.162	0.13
536.509	0.14
536.857	0.13
537.205	0.14
537.552	0.15
537.9	0.14
538.248	0.13
538.595	0.14
538.943	0.13
539.29	0.13
539.637	0.13
539.985	0.13
540.332	0.13
540.679	0.13
541.026	0.12
541.373	0.13
541.721	0.12
542.068	0.13
542.415	0.13
542.762	0.12
543.108	0.12
543.455	0.12
543.802	0.12
544.149	0.12
544.496	0.12
544.842	0.12
545.189	0.11
545.535	0.12
545.882	0.13
546.228	0.12
546.575	0.12
546.921	0.12
547.267	0.12
547.614	0.13
547.96	0.12
548.306	0.12
548.652	0.12
548.998	0.13
549.344	0.12
549.69	0.13
550.036	0.13
550.382	0.12
550.728	0.13
551.074	0.13
551.42	0.13
551.765	0.14
552.111	0.13
552.457	0.14
552.802	0.13
553.148	0.13
553.493	0.13
553.839	0.13
554.184	0.13
554.529	0.13
554.875	0.13
555.22	0.13
555.565	0.13
555.91	0.14
556.255	0.14
556.6	0.14
556.945	0.13
557.29	0.13
557.635	0.14
557.98	0.13
558.325	0.13
558.67	0.13
559.014	0.13
559.359	0.13
559.704	0.13
560.048	0.12
560.393	0.13
560.737	0.11
561.082	0.13
561.426	0.12
561.77	0.12
562.115	0.12
562.459	0.12
562.803	0.12
563.147	0.13
563.491	0.13
563.835	0.13
564.179	0.12
564.523	0.12
564.867	0.12
565.211	0.12
565.555	0.13
565.899	0.13
566.242	0.13
566.586	0.12
566.93	0.13
567.273	0.14
567.617	0.13
567.96	0.13
568.304	0.13
568.647	0.13
568.99	0.14
569.334	0.14
569.677	0.14
570.02	0.13
570.363	0.13
570.706	0.14
571.049	0.13
571.392	0.14
571.735	0.13
572.078	0.13
572.421	0.14
572.764	0.13
573.106	0.13
573.449	0.13
573.792	0.13
574.134	0.12
574.477	0.13
574.819	0.13
575.162	0.13
575.504	0.12
575.847	0.13
576.189	0.13
576.531	0.13
576.873	0.13
577.215	0.13
577.558	0.13
577.9	0.12
578.242	0.13
578.584	0.13
578.926	0.13
579.267	0.12
579.609	0.12
579.951	0.12
580.293	0.12
580.634	0.13
580.976	0.12
581.318	0.12
581.659	0.12
582.001	0.12
582.342	0.12
582.683	0.12
583.025	0.13
583.366	0.12
583.707	0.12
584.049	0.13
584.39	0.13
584.731	0.13
585.072	0.12
585.413	0.13
585.754	0.12
586.095	0.12
586.435	0.13
586.776	0.13
587.117	0.12
587.458	0.12
587.798	0.12
588.139	0.12
588.48	0.12
588.82	0.12
589.161	0.12
589.501	0.11
589.841	0.11
590.182	0.11
590.522	0.11
590.862	0.11
591.202	0.12
591.542	0.11
591.882	0.12
592.222	0.11
592.562	0.12
592.902	0.11
593.242	0.12
593.582	0.12
593.922	0.12
594.261	0.12
594.601	0.12
594.941	0.12
595.28	0.12
595.62	0.12
595.959	0.11
596.299	0.11
596.638	0.11
596.977	0.12
597.317	0.12
597.656	0.12
597.995	0.12
598.334	0.12
598.673	0.11
599.012	0.11
599.351	0.12
599.69	0.11
600.029	0.12
600.368	0.12
600.707	0.12
601.046	0.12
601.384	0.13
601.723	0.12
602.061	0.11
602.4	0.12
602.738	0.12
603.077	0.12
603.415	0.12
603.754	0.12
604.092	0.12
604.43	0.11
604.768	0.12
605.107	0.13
605.445	0.11
605.783	0.11
606.121	0.11
606.459	0.12
606.796	0.12
607.134	0.11
607.472	0.11
607.81	0.12
608.148	0.12
608.485	0.12
608.823	0.12
609.16	0.12
609.498	0.12
609.835	0.12
610.173	0.12
610.51	0.12
610.847	0.13
611.185	0.13
611.522	0.13
611.859	0.12
612.196	0.12
612.533	0.13
612.87	0.14
613.207	0.13
613.544	0.13
613.881	0.14
614.217	0.13
614.554	0.12
614.891	0.13
615.228	0.13
615.564	0.13
615.901	0.13
616.237	0.13
616.574	0.13
616.91	0.12
617.246	0.13
617.583	0.13
617.919	0.13
618.255	0.13
618.591	0.13
618.927	0.12
619.263	0.13
619.599	0.14
619.935	0.13
620.271	0.13
620.607	0.12
620.943	0.12
621.279	0.13
621.614	0.12
621.95	0.12
622.286	0.12
622.621	0.12
622.957	0.12
623.292	0.11
623.627	0.11
623.963	0.12
624.298	0.12
624.633	0.12
624.968	0.12
625.304	0.12
625.639	0.11
625.974	0.11
626.309	0.11
626.644	0.12
626.979	0.12
627.313	0.12
627.648	0.12
627.983	0.12
628.318	0.11
628.652	0.11
628.987	0.12
629.321	0.12
629.656	0.11
629.99	0.11
630.325	0.12
630.659	0.11
630.993	0.11
631.327	0.12
631.662	0.11
631.996	0.11
632.33	0.11
632.664	0.12
632.998	0.11
633.332	0.11
633.666	0.11
633.999	0.11
634.333	0.1
634.667	0.11
635.001	0.09
635.334	0.1
635.668	0.1
636.001	0.1
636.335	0.1
636.668	0.11
637.001	0.09
637.335	0.09
637.668	0.1
638.001	0.09
638.334	0.1
638.668	0.1
639.001	0.1
639.334	0.09
639.667	0.1
639.999	0.1
640.332	0.1
640.665	0.1
640.998	0.1
641.331	0.11
641.663	0.1
641.996	0.1
642.328	0.1
642.661	0.11
642.993	0.1
643.326	0.1
643.658	0.1
643.99	0.1
644.323	0.1
644.655	0.1
644.987	0.11
645.319	0.1
645.651	0.11
645.983	0.1
646.315	0.1
646.647	0.11
646.979	0.11
647.31	0.11
647.642	0.11
647.974	0.1
648.305	0.11
648.637	0.11
648.968	0.11
649.3	0.11
649.631	0.12
649.963	0.1
650.294	0.11
650.625	0.11
650.957	0.11
651.288	0.11
651.619	0.1
651.95	0.1
652.281	0.1
652.612	0.1
652.943	0.11
653.274	0.11
653.604	0.1
653.935	0.1
654.266	0.11
654.596	0.1
654.927	0.1
655.258	0.1
655.588	0.11
655.918	0.11
656.249	0.09
656.579	0.11
656.909	0.1
657.24	0.1
657.57	0.1
657.9	0.1
658.23	0.1
658.56	0.1
658.89	0.11
659.22	0.1
659.55	0.11
659.88	0.1
660.209	0.1
660.539	0.11
660.869	0.11
661.198	0.1
661.528	0.11
661.857	0.1
662.187	0.1
662.516	0.1
662.846	0.1
663.175	0.1
663.504	0.1
663.833	0.1
664.163	0.1
664.492	0.1
664.821	0.1
665.15	0.1
665.479	0.1
665.807	0.09
666.136	0.1
666.465	0.09
666.794	0.1
667.122	0.1
667.451	0.09
667.78	0.1
668.108	0.1
668.437	0.09
668.765	0.09
669.093	0.1
669.422	0.1
669.75	0.09
670.078	0.09
670.406	0.1
670.734	0.1
671.062	0.1
671.39	0.09
671.718	0.09
672.046	0.09
672.374	0.09
672.702	0.09
673.029	0.09
673.357	0.1
673.685	0.09
674.012	0.09
674.34	0.09
674.667	0.1
674.995	0.09
675.322	0.09
675.649	0.09
675.977	0.09
676.304	0.09
676.631	0.1
676.958	0.09
677.285	0.08
677.612	0.09
677.939	0.08
678.266	0.09
678.593	0.08
678.92	0.08
679.246	0.08
679.573	0.08
679.9	0.08
680.226	0.09
680.553	0.08
680.879	0.08
681.206	0.08
681.532	0.08
681.858	0.08
682.184	0.08
682.511	0.08
682.837	0.08
683.163	0.08
683.489	0.08
683.815	0.08
684.141	0.08
684.467	0.09
684.793	0.08
685.118	0.08
685.444	0.09
685.77	0.09
686.095	0.08
686.421	0.08
686.746	0.09
687.072	0.08
687.397	0.08
687.723	0.09
688.048	0.09
688.373	0.08
688.698	0.08
689.023	0.07
689.349	0.08
689.674	0.08
689.999	0.08
690.323	0.07
690.648	0.07
690.973	0.07
691.298	0.07
691.623	0.07
691.947	0.07
692.272	0.07
692.596	0.07
692.921	0.07
693.245	0.07
693.57	0.07
693.894	0.07
694.218	0.07
694.543	0.07
694.867	0.07
695.191	0.07
695.515	0.07
695.839	0.06
696.163	0.07
696.487	0.07
696.811	0.07
697.135	0.07
697.458	0.08
697.782	0.07
698.106	0.07
698.429	0.07
698.753	0.07
699.076	0.07
699.4	0.07
699.723	0.07
700.046	0.06
700.37	0.07
700.693	0.07
701.016	0.07
701.339	0.07
701.662	0.08
701.985	0.07
702.308	0.08
702.631	0.08
702.954	0.07
703.277	0.07
703.599	0.08
703.922	0.07
704.245	0.07
704.567	0.07
704.89	0.07
705.212	0.07
705.535	0.06
705.857	0.07
706.179	0.06
706.502	0.06
706.824	0.06
707.146	0.06
707.468	0.06
707.79	0.05
708.112	0.06
708.434	0.06
708.756	0.06
709.078	0.06
709.399	0.06
709.721	0.05
710.043	0.06
710.364	0.06
710.686	0.06
711.007	0.06
711.329	0.07
711.65	0.06
711.972	0.06
712.293	0.06
712.614	0.06
712.935	0.06
713.256	0.06
713.577	0.07
713.898	0.06
714.219	0.06
714.54	0.06
714.861	0.06
715.182	0.06
715.503	0.06
715.823	0.06
716.144	0.06
716.464	0.05
716.785	0.06
717.105	0.06
717.426	0.06
717.746	0.05
718.066	0.05
718.387	0.06
718.707	0.05
719.027	0.06
719.347	0.04
719.667	0.05
719.987	0.05
720.307	0.05
720.627	0.05
720.947	0.05
721.266	0.05
721.586	0.04
721.906	0.05
722.225	0.04
722.545	0.05
722.864	0.04
723.184	0.05
723.503	0.05
723.823	0.06
724.142	0.04
724.461	0.05
