Data from 12-12-AQDScycling_Absorbance__532__00532.txt Node

Date: Tue Dec 12 13:09:44 EST 2023
User: kyuminlee
Spectrometer: FLMS00943
Trigger mode: 0
Integration Time (sec): 1.000000E-1
Scans to average: 1
Electric dark correction enabled: true
Nonlinearity correction enabled: false
Boxcar width: 0
XAxis mode: Wavelengths
Number of Pixels in Spectrum: 2048
>>>>>Begin Spectral Data<<<<<
179.651	-0
180.037	-0
180.424	-0
180.81	-0.23
181.197	0.25
181.583	-0.02
181.97	-0.55
182.356	-1.26
182.743	-1.32
183.129	0.85
183.515	-0
183.901	-1.93
184.288	0.25
184.674	1.02
185.06	-0
185.446	-0.1
185.832	-1.38
186.218	-0.04
186.604	-0.04
186.99	-0.5
187.376	0.55
187.762	-0.13
188.148	1.27
188.534	0.27
188.92	0.09
189.305	-0.02
189.691	0.23
190.077	0.17
190.463	0.04
190.848	-0.04
191.234	0.15
191.619	0.13
192.005	0.05
192.391	0.15
192.776	0.18
193.161	0.18
193.547	0.14
193.932	0.06
194.318	0.07
194.703	0.21
195.088	0.21
195.473	0.3
195.859	0.26
196.244	0.14
196.629	0.01
197.014	0.1
197.399	0.16
197.784	0.13
198.169	0.32
198.554	0.25
198.939	0.15
199.324	0.21
199.709	0.16
200.094	0.07
200.478	0.15
200.863	0.16
201.248	0.27
201.633	0.12
202.017	0.23
202.402	0.18
202.787	0.18
203.171	0.29
203.556	0.26
203.94	0.22
204.325	0.22
204.709	0.35
205.093	0.03
205.478	0.38
205.862	0.1
206.246	0.08
206.631	0.24
207.015	0.14
207.399	0.24
207.783	0.09
208.167	0.18
208.551	0.21
208.935	0.2
209.319	0.25
209.703	0.14
210.087	0.4
210.471	0.22
210.855	0.24
211.239	0.19
211.623	0.22
212.007	0.27
212.39	0.4
212.774	0.06
213.158	0.06
213.541	0.26
213.925	0.32
214.309	0.43
214.692	0.26
215.076	0.25
215.459	0.11
215.842	0.11
216.226	0.25
216.609	0.27
216.993	0.24
217.376	0.56
217.759	0.17
218.142	0.42
218.525	0.49
218.909	0.3
219.292	0.29
219.675	0.36
220.058	0.34
220.441	0.65
220.824	0.54
221.207	0.71
221.59	0.42
221.973	0.44
222.355	0.76
222.738	0.7
223.121	0.59
223.504	0.54
223.886	0.59
224.269	0.78
224.652	0.72
225.034	0.89
225.417	0.77
225.799	0.73
226.182	1.01
226.564	0.84
226.947	0.72
227.329	0.97
227.711	1.21
228.094	1.03
228.476	0.79
228.858	0.77
229.24	0.84
229.623	0.94
230.005	0.8
230.387	0.83
230.769	0.89
231.151	1.3
231.533	1.1
231.915	1.07
232.297	1.12
232.679	0.97
233.061	0.94
233.442	1.07
233.824	1.11
234.206	1.35
234.588	1.1
234.969	1.02
235.351	0.91
235.733	1.05
236.114	1.2
236.496	1.07
236.877	1.11
237.259	1.15
237.64	1.1
238.022	1.03
238.403	1.06
238.784	0.98
239.165	1.06
239.547	1.17
239.928	1.15
240.309	1.05
240.69	0.99
241.071	1.05
241.452	1.17
241.834	1.16
242.215	1.08
242.595	1.01
242.976	1.21
243.357	1.17
243.738	1.05
244.119	1.38
244.5	1.1
244.881	1.29
245.261	1.28
245.642	1.21
246.023	1.2
246.403	1.3
246.784	1.25
247.164	1.3
247.545	1.25
247.925	1.29
248.306	1.21
248.686	1.66
249.067	1.21
249.447	1.39
249.827	1.59
250.207	1.44
250.588	1.28
250.968	1.54
251.348	1.38
251.728	1.44
252.108	1.35
252.488	1.53
252.868	1.41
253.248	1.32
253.628	1.29
254.008	1.63
254.388	1.32
254.768	1.3
255.147	1.31
255.527	1.31
255.907	1.36
256.287	1.39
256.666	1.41
257.046	1.47
257.425	1.56
257.805	1.49
258.184	1.37
258.564	1.42
258.943	1.22
259.323	1.52
259.702	1.44
260.081	1.46
260.461	1.39
260.84	1.38
261.219	1.8
261.598	1.6
261.977	1.6
262.356	1.51
262.736	1.47
263.115	1.55
263.494	1.43
263.873	1.36
264.251	1.56
264.63	1.74
265.009	1.52
265.388	1.52
265.767	1.31
266.145	1.43
266.524	1.47
266.903	1.5
267.281	1.37
267.66	1.41
268.039	1.49
268.417	1.53
268.796	1.46
269.174	1.5
269.552	1.33
269.931	1.61
270.309	1.4
270.687	1.52
271.066	2.22
271.444	1.47
271.822	1.77
272.2	1.54
272.578	1.46
272.956	1.4
273.334	1.34
273.712	1.53
274.09	1.42
274.468	1.35
274.846	1.3
275.224	1.28
275.602	1.32
275.98	1.41
276.357	1.4
276.735	1.5
277.113	1.32
277.49	1.32
277.868	1.3
278.246	1.35
278.623	1.39
279.001	1.37
279.378	1.61
279.756	1.42
280.133	1.71
280.51	1.29
280.888	1.35
281.265	1.37
281.642	1.45
282.019	1.68
282.396	1.65
282.773	1.38
283.151	1.61
283.528	1.54
283.905	1.44
284.282	1.52
284.659	1.55
285.035	1.3
285.412	1.37
285.789	1.52
286.166	1.45
286.543	1.57
286.919	1.58
287.296	1.39
287.673	1.65
288.049	1.58
288.426	1.53
288.802	1.58
289.179	1.62
289.555	2.05
289.932	1.51
290.308	1.32
290.684	1.43
291.061	1.48
291.437	1.91
291.813	1.48
292.189	1.31
292.565	1.36
292.942	1.34
293.318	1.41
293.694	1.38
294.07	1.3
294.446	1.52
294.822	1.64
295.197	1.54
295.573	1.41
295.949	1.53
296.325	1.47
296.701	1.56
297.076	1.54
297.452	1.62
297.828	1.44
298.203	1.64
298.579	1.46
298.954	1.42
299.33	1.34
299.705	1.41
300.081	1.52
300.456	1.44
300.831	1.49
301.206	1.36
301.582	1.61
301.957	1.47
302.332	1.63
302.707	1.32
303.082	1.4
303.457	1.4
303.832	1.43
304.207	1.33
304.582	1.37
304.957	1.37
305.332	1.45
305.707	1.43
306.082	1.37
306.456	1.5
306.831	1.34
307.206	1.39
307.58	1.32
307.955	1.36
308.33	1.43
308.704	1.28
309.079	1.28
309.453	1.45
309.828	1.25
310.202	1.34
310.576	1.29
310.951	1.32
311.325	1.29
311.699	1.23
312.073	1.2
312.447	1.24
312.821	1.35
313.196	1.28
313.57	1.23
313.944	1.19
314.317	1.23
314.691	1.32
315.065	1.27
315.439	1.29
315.813	1.31
316.187	1.2
316.56	1.35
316.934	1.34
317.308	1.29
317.681	1.27
318.055	1.3
318.428	1.32
318.802	1.38
319.175	1.32
319.549	1.33
319.922	1.2
320.295	1.16
320.669	1.41
321.042	1.34
321.415	1.39
321.788	1.3
322.162	1.27
322.535	1.35
322.908	1.29
323.281	1.34
323.654	1.45
324.027	1.24
324.4	1.31
324.773	1.36
325.145	1.33
325.518	1.28
325.891	1.26
326.264	1.34
326.636	1.32
327.009	1.28
327.382	1.41
327.754	1.38
328.127	1.41
328.499	1.32
328.872	1.34
329.244	1.32
329.616	1.29
329.989	1.36
330.361	1.36
330.733	1.31
331.106	1.36
331.478	1.49
331.85	1.34
332.222	1.34
332.594	1.33
332.966	1.36
333.338	1.41
333.71	1.4
334.082	1.52
334.454	1.28
334.826	1.4
335.197	1.37
335.569	1.39
335.941	1.3
336.312	1.36
336.684	1.36
337.056	1.37
337.427	1.34
337.799	1.4
338.17	1.35
338.542	1.23
338.913	1.4
339.284	1.52
339.656	1.36
340.027	1.48
340.398	1.43
340.769	1.4
341.141	1.47
341.512	1.44
341.883	1.37
342.254	1.39
342.625	1.39
342.996	1.34
343.367	1.43
343.738	1.45
344.108	1.38
344.479	1.71
344.85	1.38
345.221	1.41
345.591	1.26
345.962	1.26
346.333	1.42
346.703	1.24
347.074	1.32
347.444	1.26
347.815	1.38
348.185	1.3
348.556	1.3
348.926	1.25
349.296	1.32
349.666	1.23
350.037	1.27
350.407	1.2
350.777	1.37
351.147	1.3
351.517	1.33
351.887	1.34
352.257	1.44
352.627	1.22
352.997	1.24
353.367	1.27
353.737	1.4
354.106	1.34
354.476	1.38
354.846	1.44
355.216	1.43
355.585	1.47
355.955	1.36
356.324	1.42
356.694	1.33
357.063	1.38
357.433	1.31
357.802	1.34
358.171	1.4
358.541	1.44
358.91	1.38
359.279	1.53
359.648	1.38
360.017	1.49
360.387	1.42
360.756	1.35
361.125	1.4
361.494	1.47
361.863	1.37
362.231	1.31
362.6	1.47
362.969	1.51
363.338	1.45
363.707	1.49
364.075	1.54
364.444	1.23
364.813	1.4
365.181	1.45
365.55	1.34
365.918	1.55
366.287	1.43
366.655	1.52
367.024	1.65
367.392	1.53
367.76	1.43
368.128	1.61
368.497	1.38
368.865	1.47
369.233	1.41
369.601	1.48
369.969	1.51
370.337	1.49
370.705	1.46
371.073	1.47
371.441	1.56
371.809	1.48
372.177	1.46
372.544	1.79
372.912	1.6
373.28	1.44
373.647	1.6
374.015	1.47
374.383	1.72
374.75	1.6
375.118	1.48
375.485	1.6
375.853	1.52
376.22	1.48
376.587	1.54
376.955	1.67
377.322	1.61
377.689	1.45
378.056	1.47
378.423	1.43
378.79	1.49
379.157	1.47
379.524	1.52
379.891	1.53
380.258	1.58
380.625	1.48
380.992	1.62
381.359	1.59
381.726	1.66
382.092	1.51
382.459	1.42
382.826	1.51
383.192	1.61
383.559	1.55
383.925	1.63
384.292	1.38
384.658	1.54
385.025	1.59
385.391	1.97
385.757	1.74
386.123	1.66
386.49	1.52
386.856	1.59
387.222	1.6
387.588	1.51
387.954	1.68
388.32	1.61
388.686	1.6
389.052	1.52
389.418	1.55
389.784	1.58
390.15	1.66
390.515	1.35
390.881	1.59
391.247	1.54
391.613	1.76
391.978	1.52
392.344	1.7
392.709	1.58
393.075	1.62
393.44	1.6
393.806	1.67
394.171	1.6
394.536	1.58
394.902	1.67
395.267	1.49
395.632	1.55
395.997	1.5
396.362	1.47
396.727	1.61
397.092	1.56
397.457	1.47
397.822	1.42
398.187	1.63
398.552	1.6
398.917	1.6
399.282	1.53
399.646	1.58
400.011	1.64
400.376	1.49
400.74	1.51
401.105	1.53
401.47	1.62
401.834	1.59
402.199	1.58
402.563	1.66
402.927	1.57
403.292	1.46
403.656	1.53
404.02	1.66
404.384	1.66
404.749	1.6
405.113	1.61
405.477	1.53
405.841	1.58
406.205	1.61
406.569	1.52
406.933	1.51
407.296	1.52
407.66	1.48
408.024	1.49
408.388	1.64
408.752	1.56
409.115	1.6
409.479	1.6
409.842	1.44
410.206	1.47
410.569	1.45
410.933	1.47
411.296	1.4
411.66	1.47
412.023	1.47
412.386	1.55
412.749	1.37
413.113	1.56
413.476	1.51
413.839	1.35
414.202	1.42
414.565	1.43
414.928	1.39
415.291	1.3
415.654	1.46
416.017	1.43
416.38	1.39
416.742	1.33
417.105	1.33
417.468	1.42
417.83	1.38
418.193	1.42
418.556	1.27
418.918	1.32
419.281	1.5
419.643	1.48
420.005	1.41
420.368	1.42
420.73	1.3
421.092	1.41
421.455	1.43
421.817	1.32
422.179	1.29
422.541	1.37
422.903	1.5
423.265	1.41
423.627	1.35
423.989	1.35
424.351	1.25
424.713	1.35
425.075	1.32
425.436	1.35
425.798	1.34
426.16	1.46
426.521	1.33
426.883	1.37
427.245	1.31
427.606	1.25
427.967	1.29
428.329	1.25
428.69	1.35
429.052	1.29
429.413	1.43
429.774	1.32
430.135	1.4
430.497	1.33
430.858	1.33
431.219	1.32
431.58	1.29
431.941	1.27
432.302	1.24
432.663	1.34
433.024	1.37
433.384	1.37
433.745	1.22
434.106	1.34
434.467	1.27
434.827	1.29
435.188	1.27
435.548	1.41
435.909	1.3
436.269	1.3
436.63	1.23
436.99	1.23
437.351	1.17
437.711	1.26
438.071	1.23
438.431	1.22
438.792	1.26
439.152	1.25
439.512	1.19
439.872	1.2
440.232	1.2
440.592	1.18
440.952	1.21
441.312	1.18
441.671	1.17
442.031	1.21
442.391	1.2
442.751	1.18
443.11	1.18
443.47	1.15
443.83	1.12
444.189	1.11
444.549	1.09
444.908	1.14
445.267	1.11
445.627	1.1
445.986	1.12
446.345	1.07
446.705	1.11
447.064	1.09
447.423	1.08
447.782	1.09
448.141	1.08
448.5	1.03
448.859	1.04
449.218	1.04
449.577	1.08
449.936	1.06
450.295	1.06
450.653	1.05
451.012	1.01
451.371	1.02
451.729	1.01
452.088	1
452.447	1
452.805	1
453.163	0.99
453.522	1
453.88	0.97
454.239	0.94
454.597	0.94
454.955	0.91
455.313	0.91
455.671	0.92
456.029	0.92
456.388	0.9
456.746	0.89
457.104	0.89
457.461	0.87
457.819	0.88
458.177	0.85
458.535	0.85
458.893	0.82
459.25	0.84
459.608	0.82
459.966	0.81
460.323	0.79
460.681	0.78
461.038	0.77
461.396	0.76
461.753	0.75
462.111	0.75
462.468	0.74
462.825	0.73
463.182	0.73
463.54	0.7
463.897	0.71
464.254	0.71
464.611	0.69
464.968	0.68
465.325	0.67
465.682	0.66
466.039	0.67
466.395	0.64
466.752	0.63
467.109	0.63
467.466	0.62
467.822	0.61
468.179	0.6
468.535	0.6
468.892	0.59
469.248	0.58
469.605	0.57
469.961	0.56
470.318	0.57
470.674	0.56
471.03	0.54
471.386	0.54
471.743	0.53
472.099	0.52
472.455	0.53
472.811	0.51
473.167	0.51
473.523	0.49
473.879	0.49
474.235	0.48
474.59	0.47
474.946	0.46
475.302	0.47
475.657	0.45
476.013	0.45
476.369	0.42
476.724	0.44
477.08	0.43
477.435	0.42
477.791	0.41
478.146	0.41
478.501	0.4
478.857	0.4
479.212	0.39
479.567	0.39
479.922	0.38
480.277	0.37
480.632	0.37
480.987	0.37
481.342	0.36
481.697	0.36
482.052	0.34
482.407	0.34
482.762	0.34
483.116	0.34
483.471	0.33
483.826	0.32
484.18	0.32
484.535	0.31
484.89	0.31
485.244	0.3
485.598	0.3
485.953	0.3
486.307	0.3
486.661	0.3
487.016	0.28
487.37	0.29
487.724	0.28
488.078	0.28
488.432	0.27
488.786	0.28
489.14	0.27
489.494	0.27
489.848	0.26
490.202	0.25
490.556	0.26
490.91	0.26
491.263	0.25
491.617	0.25
491.971	0.24
492.324	0.24
492.678	0.24
493.031	0.24
493.385	0.24
493.738	0.24
494.091	0.23
494.445	0.23
494.798	0.23
495.151	0.22
495.504	0.22
495.857	0.22
496.21	0.22
496.564	0.21
496.916	0.22
497.269	0.21
497.622	0.21
497.975	0.21
498.328	0.21
498.681	0.2
499.033	0.2
499.386	0.21
499.739	0.2
500.091	0.2
500.444	0.19
500.796	0.2
501.149	0.2
501.501	0.19
501.854	0.19
502.206	0.2
502.558	0.19
502.91	0.19
503.263	0.18
503.615	0.18
503.967	0.19
504.319	0.19
504.671	0.19
505.023	0.18
505.375	0.18
505.726	0.18
506.078	0.18
506.43	0.18
506.782	0.18
507.133	0.18
507.485	0.19
507.837	0.18
508.188	0.18
508.54	0.18
508.891	0.19
509.243	0.18
509.594	0.18
509.945	0.17
510.296	0.17
510.648	0.18
510.999	0.17
511.35	0.17
511.701	0.17
512.052	0.18
512.403	0.17
512.754	0.17
513.105	0.17
513.456	0.17
513.807	0.17
514.157	0.18
514.508	0.17
514.859	0.16
515.209	0.17
515.56	0.17
515.91	0.17
516.261	0.18
516.611	0.17
516.962	0.17
517.312	0.17
517.662	0.17
518.013	0.17
518.363	0.17
518.713	0.18
519.063	0.18
519.413	0.17
519.763	0.17
520.113	0.17
520.463	0.17
520.813	0.18
521.163	0.17
521.512	0.17
521.862	0.17
522.212	0.17
522.562	0.17
522.911	0.17
523.261	0.17
523.61	0.17
523.96	0.17
524.309	0.17
524.658	0.17
525.008	0.17
525.357	0.17
525.706	0.17
526.056	0.16
526.405	0.17
526.754	0.17
527.103	0.17
527.452	0.17
527.801	0.17
528.15	0.17
528.499	0.16
528.847	0.18
529.196	0.18
529.545	0.18
529.893	0.18
530.242	0.18
530.591	0.18
530.939	0.18
531.288	0.18
531.636	0.18
531.985	0.18
532.333	0.18
532.681	0.18
533.029	0.18
533.378	0.17
533.726	0.18
534.074	0.19
534.422	0.17
534.77	0.18
535.118	0.18
535.466	0.18
535.814	0.17
536.162	0.18
536.509	0.17
536.857	0.18
537.205	0.18
537.552	0.19
537.9	0.18
538.248	0.18
538.595	0.18
538.943	0.18
539.29	0.18
539.637	0.18
539.985	0.18
540.332	0.18
540.679	0.18
541.026	0.17
541.373	0.18
541.721	0.18
542.068	0.18
542.415	0.18
542.762	0.17
543.108	0.17
543.455	0.16
543.802	0.17
544.149	0.17
544.496	0.17
544.842	0.17
545.189	0.16
545.535	0.16
545.882	0.17
546.228	0.17
546.575	0.16
546.921	0.16
547.267	0.16
547.614	0.17
547.96	0.17
548.306	0.17
548.652	0.16
548.998	0.18
549.344	0.17
549.69	0.17
550.036	0.17
550.382	0.17
550.728	0.17
551.074	0.18
551.42	0.18
551.765	0.17
552.111	0.17
552.457	0.18
552.802	0.18
553.148	0.17
553.493	0.17
553.839	0.18
554.184	0.18
554.529	0.17
554.875	0.18
555.22	0.18
555.565	0.18
555.91	0.17
556.255	0.18
556.6	0.18
556.945	0.17
557.29	0.17
557.635	0.18
557.98	0.18
558.325	0.18
558.67	0.18
559.014	0.18
559.359	0.17
559.704	0.18
560.048	0.17
560.393	0.18
560.737	0.17
561.082	0.17
561.426	0.17
561.77	0.18
562.115	0.17
562.459	0.18
562.803	0.18
563.147	0.18
563.491	0.18
563.835	0.18
564.179	0.17
564.523	0.17
564.867	0.18
565.211	0.18
565.555	0.18
565.899	0.18
566.242	0.18
566.586	0.17
566.93	0.17
567.273	0.18
567.617	0.18
567.96	0.18
568.304	0.17
568.647	0.18
568.99	0.18
569.334	0.19
569.677	0.18
570.02	0.19
570.363	0.19
570.706	0.17
571.049	0.18
571.392	0.19
571.735	0.18
572.078	0.18
572.421	0.18
572.764	0.18
573.106	0.18
573.449	0.17
573.792	0.19
574.134	0.18
574.477	0.18
574.819	0.18
575.162	0.18
575.504	0.18
575.847	0.19
576.189	0.18
576.531	0.18
576.873	0.18
577.215	0.18
577.558	0.18
577.9	0.17
578.242	0.18
578.584	0.18
578.926	0.18
579.267	0.18
579.609	0.18
579.951	0.18
580.293	0.18
580.634	0.19
580.976	0.18
581.318	0.18
581.659	0.18
582.001	0.18
582.342	0.18
582.683	0.17
583.025	0.17
583.366	0.17
583.707	0.17
584.049	0.18
584.39	0.18
584.731	0.18
585.072	0.17
585.413	0.18
585.754	0.18
586.095	0.18
586.435	0.18
586.776	0.18
587.117	0.18
587.458	0.17
587.798	0.17
588.139	0.18
588.48	0.17
588.82	0.17
589.161	0.18
589.501	0.17
589.841	0.17
590.182	0.17
590.522	0.17
590.862	0.17
591.202	0.17
591.542	0.17
591.882	0.17
592.222	0.18
592.562	0.17
592.902	0.18
593.242	0.17
593.582	0.18
593.922	0.17
594.261	0.17
594.601	0.17
594.941	0.17
595.28	0.18
595.62	0.18
595.959	0.17
596.299	0.16
596.638	0.17
596.977	0.18
597.317	0.17
597.656	0.18
597.995	0.17
598.334	0.18
598.673	0.17
599.012	0.17
599.351	0.18
599.69	0.17
600.029	0.18
600.368	0.18
600.707	0.18
601.046	0.18
601.384	0.18
601.723	0.18
602.061	0.18
602.4	0.18
602.738	0.18
603.077	0.18
603.415	0.17
603.754	0.17
604.092	0.17
604.43	0.17
604.768	0.18
605.107	0.18
605.445	0.17
605.783	0.17
606.121	0.17
606.459	0.17
606.796	0.17
607.134	0.17
607.472	0.17
607.81	0.17
608.148	0.16
608.485	0.17
608.823	0.17
609.16	0.17
609.498	0.17
609.835	0.17
610.173	0.17
610.51	0.17
610.847	0.17
611.185	0.17
611.522	0.17
611.859	0.17
612.196	0.17
612.533	0.18
612.87	0.18
613.207	0.18
613.544	0.18
613.881	0.18
614.217	0.17
614.554	0.18
614.891	0.18
615.228	0.17
615.564	0.18
615.901	0.18
616.237	0.18
616.574	0.17
616.91	0.18
617.246	0.18
617.583	0.18
617.919	0.18
618.255	0.18
618.591	0.18
618.927	0.18
619.263	0.18
619.599	0.19
619.935	0.17
620.271	0.18
620.607	0.17
620.943	0.17
621.279	0.18
621.614	0.17
621.95	0.18
622.286	0.18
622.621	0.16
622.957	0.17
623.292	0.17
623.627	0.17
623.963	0.17
624.298	0.17
624.633	0.17
624.968	0.17
625.304	0.16
625.639	0.16
625.974	0.17
626.309	0.16
626.644	0.16
626.979	0.17
627.313	0.17
627.648	0.16
627.983	0.17
628.318	0.16
628.652	0.16
628.987	0.16
629.321	0.16
629.656	0.15
629.99	0.15
630.325	0.15
630.659	0.15
630.993	0.15
631.327	0.15
631.662	0.14
631.996	0.15
632.33	0.15
632.664	0.16
632.998	0.15
633.332	0.15
633.666	0.16
633.999	0.15
634.333	0.15
634.667	0.15
635.001	0.15
635.334	0.15
635.668	0.15
636.001	0.15
636.335	0.15
636.668	0.15
637.001	0.15
637.335	0.14
637.668	0.15
638.001	0.15
638.334	0.15
638.668	0.14
639.001	0.15
639.334	0.14
639.667	0.15
639.999	0.15
640.332	0.15
640.665	0.14
640.998	0.15
641.331	0.15
641.663	0.14
641.996	0.15
642.328	0.15
642.661	0.14
642.993	0.14
643.326	0.14
643.658	0.15
643.99	0.14
644.323	0.14
644.655	0.14
644.987	0.14
645.319	0.14
645.651	0.15
645.983	0.14
646.315	0.15
646.647	0.14
646.979	0.15
647.31	0.15
647.642	0.14
647.974	0.14
648.305	0.14
648.637	0.14
648.968	0.15
649.3	0.14
649.631	0.14
649.963	0.14
650.294	0.14
650.625	0.14
650.957	0.15
651.288	0.14
651.619	0.15
651.95	0.15
652.281	0.15
652.612	0.15
652.943	0.15
653.274	0.15
653.604	0.14
653.935	0.14
654.266	0.15
654.596	0.14
654.927	0.14
655.258	0.14
655.588	0.15
655.918	0.14
656.249	0.13
656.579	0.13
656.909	0.14
657.24	0.14
657.57	0.14
657.9	0.14
658.23	0.13
658.56	0.15
658.89	0.14
659.22	0.14
659.55	0.14
659.88	0.14
660.209	0.14
660.539	0.15
660.869	0.15
661.198	0.15
661.528	0.14
661.857	0.14
662.187	0.14
662.516	0.14
662.846	0.13
663.175	0.14
663.504	0.14
663.833	0.13
664.163	0.14
664.492	0.13
664.821	0.14
665.15	0.13
665.479	0.14
665.807	0.14
666.136	0.14
666.465	0.14
666.794	0.14
667.122	0.13
667.451	0.13
667.78	0.14
668.108	0.13
668.437	0.13
668.765	0.13
669.093	0.13
669.422	0.14
669.75	0.13
670.078	0.13
670.406	0.14
670.734	0.14
671.062	0.13
671.39	0.13
671.718	0.13
672.046	0.13
672.374	0.13
672.702	0.12
673.029	0.12
673.357	0.13
673.685	0.14
674.012	0.13
674.34	0.13
674.667	0.13
674.995	0.13
675.322	0.13
675.649	0.13
675.977	0.13
676.304	0.13
676.631	0.13
676.958	0.13
677.285	0.12
677.612	0.12
677.939	0.12
678.266	0.13
678.593	0.12
678.92	0.13
679.246	0.12
679.573	0.12
679.9	0.12
680.226	0.13
680.553	0.12
680.879	0.13
681.206	0.13
681.532	0.12
681.858	0.12
682.184	0.13
682.511	0.12
682.837	0.12
683.163	0.13
683.489	0.13
683.815	0.13
684.141	0.12
684.467	0.12
684.793	0.11
685.118	0.12
685.444	0.12
685.77	0.12
686.095	0.12
686.421	0.12
686.746	0.12
687.072	0.12
687.397	0.11
687.723	0.12
688.048	0.13
688.373	0.12
688.698	0.12
689.023	0.12
689.349	0.12
689.674	0.12
689.999	0.12
690.323	0.11
690.648	0.11
690.973	0.11
691.298	0.11
691.623	0.11
691.947	0.11
692.272	0.12
692.596	0.12
692.921	0.11
693.245	0.12
693.57	0.12
693.894	0.12
694.218	0.11
694.543	0.12
694.867	0.12
695.191	0.11
695.515	0.12
695.839	0.11
696.163	0.11
696.487	0.11
696.811	0.11
697.135	0.12
697.458	0.11
697.782	0.11
698.106	0.12
698.429	0.11
698.753	0.11
699.076	0.11
699.4	0.1
699.723	0.11
700.046	0.1
700.37	0.11
700.693	0.11
701.016	0.11
701.339	0.11
701.662	0.11
701.985	0.11
702.308	0.11
702.631	0.11
702.954	0.11
703.277	0.1
703.599	0.11
703.922	0.1
704.245	0.1
704.567	0.11
704.89	0.1
705.212	0.1
705.535	0.1
705.857	0.1
706.179	0.1
706.502	0.09
706.824	0.1
707.146	0.1
707.468	0.11
707.79	0.1
708.112	0.11
708.434	0.1
708.756	0.1
709.078	0.1
709.399	0.1
709.721	0.1
710.043	0.11
710.364	0.1
710.686	0.1
711.007	0.1
711.329	0.11
711.65	0.11
711.972	0.1
712.293	0.1
712.614	0.11
712.935	0.11
713.256	0.11
713.577	0.11
713.898	0.11
714.219	0.1
714.54	0.1
714.861	0.09
715.182	0.1
715.503	0.09
715.823	0.09
716.144	0.09
716.464	0.09
716.785	0.09
717.105	0.09
717.426	0.09
717.746	0.09
718.066	0.09
718.387	0.09
718.707	0.09
719.027	0.09
719.347	0.08
719.667	0.09
719.987	0.08
720.307	0.08
720.627	0.09
720.947	0.09
721.266	0.09
721.586	0.08
721.906	0.08
722.225	0.08
722.545	0.08
722.864	0.09
723.184	0.09
723.503	0.09
