Data from 12-12-AQDScycling_Absorbance__888__00888.txt Node

Date: Tue Dec 12 14:38:44 EST 2023
User: kyuminlee
Spectrometer: FLMS00943
Trigger mode: 0
Integration Time (sec): 1.000000E-1
Scans to average: 1
Electric dark correction enabled: true
Nonlinearity correction enabled: false
Boxcar width: 0
XAxis mode: Wavelengths
Number of Pixels in Spectrum: 2048
>>>>>Begin Spectral Data<<<<<
179.651	-0
180.037	-0
180.424	-0
180.81	-0
181.197	0.26
181.583	-0
181.97	-0.43
182.356	-0
182.743	-1.17
183.129	0.29
183.515	-0
183.901	-2.59
184.288	-0.21
184.674	0.88
185.06	-0
185.446	-0
185.832	-1.5
186.218	-0.03
186.604	-0
186.99	-0
187.376	-0
187.762	-0.34
188.148	0.32
188.534	-0.26
188.92	0.09
189.305	0.1
189.691	0.07
190.077	0.12
190.463	-0.07
190.848	-0.04
191.234	0.07
191.619	-0
192.005	0.18
192.391	0.12
192.776	0.14
193.161	0.12
193.547	-0.01
193.932	0.02
194.318	0.13
194.703	0.06
195.088	0.16
195.473	0.14
195.859	0.08
196.244	0.16
196.629	0.06
197.014	0.1
197.399	0.13
197.784	0.18
198.169	0.17
198.554	0.15
198.939	0.1
199.324	0.08
199.709	0.1
200.094	0.16
200.478	0.11
200.863	0.28
201.248	0.07
201.633	0.12
202.017	0.18
202.402	0.3
202.787	0.11
203.171	0.12
203.556	0.17
203.94	0.08
204.325	0.27
204.709	0.2
205.093	0.1
205.478	0.25
205.862	0.15
206.246	0.25
206.631	0.15
207.015	0.13
207.399	0.12
207.783	0.01
208.167	0.12
208.551	0.18
208.935	0.2
209.319	0.15
209.703	0.12
210.087	0.29
210.471	0.23
210.855	0.03
211.239	0.24
211.623	0.19
212.007	0.19
212.39	0.27
212.774	0.19
213.158	0.14
213.541	0.27
213.925	0.17
214.309	0.22
214.692	0.17
215.076	0.37
215.459	0.12
215.842	0.12
216.226	0.18
216.609	0.36
216.993	0.2
217.376	0.51
217.759	0.24
218.142	0.35
218.525	0.45
218.909	0.36
219.292	0.39
219.675	0.52
220.058	0.35
220.441	0.5
220.824	0.47
221.207	0.51
221.59	0.52
221.973	0.59
222.355	0.64
222.738	0.68
223.121	0.71
223.504	0.52
223.886	0.57
224.269	0.81
224.652	0.77
225.034	0.7
225.417	0.71
225.799	0.79
226.182	0.87
226.564	0.81
226.947	0.73
227.329	0.77
227.711	1.09
228.094	0.79
228.476	0.93
228.858	0.89
229.24	0.86
229.623	0.85
230.005	0.79
230.387	0.96
230.769	0.77
231.151	0.88
231.533	0.91
231.915	1.04
232.297	1.1
232.679	0.97
233.061	0.92
233.442	0.97
233.824	1.09
234.206	1.13
234.588	1.05
234.969	0.99
235.351	1.04
235.733	1.04
236.114	1.11
236.496	1.04
236.877	1.32
237.259	1.08
237.64	1.19
238.022	1.07
238.403	1.02
238.784	1.12
239.165	0.96
239.547	1.18
239.928	1.01
240.309	1.01
240.69	0.98
241.071	1.14
241.452	1.09
241.834	0.99
242.215	1.1
242.595	1
242.976	1.01
243.357	1.15
243.738	1.07
244.119	1.25
244.5	1.19
244.881	1.2
245.261	1.17
245.642	1.12
246.023	1.17
246.403	1.18
246.784	1.24
247.164	1.33
247.545	1.25
247.925	1.19
248.306	1.14
248.686	1.44
249.067	1.18
249.447	1.35
249.827	1.46
250.207	1.4
250.588	1.35
250.968	1.34
251.348	1.32
251.728	1.43
252.108	1.38
252.488	1.42
252.868	1.31
253.248	1.23
253.628	1.33
254.008	1.49
254.388	1.26
254.768	1.25
255.147	1.34
255.527	1.48
255.907	1.35
256.287	1.34
256.666	1.53
257.046	1.46
257.425	1.49
257.805	1.35
258.184	1.38
258.564	1.33
258.943	1.34
259.323	1.69
259.702	1.46
260.081	1.36
260.461	1.41
260.84	1.53
261.219	1.67
261.598	1.39
261.977	1.45
262.356	1.52
262.736	1.45
263.115	1.79
263.494	1.46
263.873	1.39
264.251	1.39
264.63	1.45
265.009	1.42
265.388	1.25
265.767	1.38
266.145	1.38
266.524	1.3
266.903	1.32
267.281	1.38
267.66	1.43
268.039	1.42
268.417	1.36
268.796	1.35
269.174	1.42
269.552	1.41
269.931	1.4
270.309	1.38
270.687	1.45
271.066	1.57
271.444	1.38
271.822	1.53
272.2	1.39
272.578	1.34
272.956	1.47
273.334	1.32
273.712	1.35
274.09	1.4
274.468	1.34
274.846	1.34
275.224	1.3
275.602	1.41
275.98	1.54
276.357	1.46
276.735	1.48
277.113	1.59
277.49	1.34
277.868	1.26
278.246	1.47
278.623	1.37
279.001	1.33
279.378	1.57
279.756	1.48
280.133	1.54
280.51	1.44
280.888	1.46
281.265	1.42
281.642	1.43
282.019	1.62
282.396	1.67
282.773	1.39
283.151	1.5
283.528	1.56
283.905	1.42
284.282	1.47
284.659	1.5
285.035	1.31
285.412	1.32
285.789	1.57
286.166	1.43
286.543	1.43
286.919	1.36
287.296	1.49
287.673	1.59
288.049	1.79
288.426	1.61
288.802	1.59
289.179	1.38
289.555	1.63
289.932	1.48
290.308	1.38
290.684	1.39
291.061	1.35
291.437	1.49
291.813	1.39
292.189	1.35
292.565	1.27
292.942	1.29
293.318	1.33
293.694	1.43
294.07	1.33
294.446	1.34
294.822	1.52
295.197	1.39
295.573	1.6
295.949	1.47
296.325	1.45
296.701	1.62
297.076	1.51
297.452	1.62
297.828	1.48
298.203	1.47
298.579	1.45
298.954	1.37
299.33	1.37
299.705	1.4
300.081	1.45
300.456	1.5
300.831	1.37
301.206	1.39
301.582	1.51
301.957	1.42
302.332	1.6
302.707	1.35
303.082	1.46
303.457	1.36
303.832	1.38
304.207	1.21
304.582	1.3
304.957	1.33
305.332	1.35
305.707	1.38
306.082	1.31
306.456	1.27
306.831	1.28
307.206	1.27
307.58	1.31
307.955	1.29
308.33	1.28
308.704	1.25
309.079	1.21
309.453	1.31
309.828	1.21
310.202	1.3
310.576	1.25
310.951	1.31
311.325	1.23
311.699	1.19
312.073	1.15
312.447	1.22
312.821	1.18
313.196	1.24
313.57	1.17
313.944	1.18
314.317	1.18
314.691	1.22
315.065	1.24
315.439	1.23
315.813	1.23
316.187	1.24
316.56	1.31
316.934	1.27
317.308	1.18
317.681	1.3
318.055	1.24
318.428	1.16
318.802	1.23
319.175	1.26
319.549	1.25
319.922	1.15
320.295	1.15
320.669	1.21
321.042	1.2
321.415	1.33
321.788	1.24
322.162	1.25
322.535	1.26
322.908	1.23
323.281	1.26
323.654	1.3
324.027	1.21
324.4	1.15
324.773	1.27
325.145	1.31
325.518	1.15
325.891	1.2
326.264	1.3
326.636	1.21
327.009	1.23
327.382	1.25
327.754	1.27
328.127	1.18
328.499	1.28
328.872	1.28
329.244	1.34
329.616	1.2
329.989	1.24
330.361	1.29
330.733	1.26
331.106	1.24
331.478	1.3
331.85	1.21
332.222	1.21
332.594	1.29
332.966	1.27
333.338	1.42
333.71	1.29
334.082	1.37
334.454	1.25
334.826	1.3
335.197	1.29
335.569	1.32
335.941	1.23
336.312	1.37
336.684	1.35
337.056	1.32
337.427	1.44
337.799	1.37
338.17	1.36
338.542	1.34
338.913	1.37
339.284	1.39
339.656	1.37
340.027	1.42
340.398	1.4
340.769	1.28
341.141	1.52
341.512	1.38
341.883	1.32
342.254	1.36
342.625	1.4
342.996	1.38
343.367	1.33
343.738	1.28
344.108	1.33
344.479	1.45
344.85	1.33
345.221	1.41
345.591	1.25
345.962	1.26
346.333	1.19
346.703	1.14
347.074	1.19
347.444	1.2
347.815	1.3
348.185	1.33
348.556	1.28
348.926	1.3
349.296	1.29
349.666	1.28
350.037	1.26
350.407	1.23
350.777	1.27
351.147	1.34
351.517	1.3
351.887	1.29
352.257	1.34
352.627	1.24
352.997	1.37
353.367	1.34
353.737	1.36
354.106	1.4
354.476	1.33
354.846	1.4
355.216	1.39
355.585	1.46
355.955	1.44
356.324	1.4
356.694	1.43
357.063	1.42
357.433	1.46
357.802	1.36
358.171	1.36
358.541	1.39
358.91	1.43
359.279	1.52
359.648	1.4
360.017	1.49
360.387	1.37
360.756	1.42
361.125	1.45
361.494	1.59
361.863	1.43
362.231	1.36
362.6	1.38
362.969	1.57
363.338	1.41
363.707	1.61
364.075	1.48
364.444	1.4
364.813	1.49
365.181	1.42
365.55	1.41
365.918	1.55
366.287	1.56
366.655	1.52
367.024	1.53
367.392	1.47
367.76	1.46
368.128	1.4
368.497	1.45
368.865	1.47
369.233	1.38
369.601	1.44
369.969	1.47
370.337	1.44
370.705	1.45
371.073	1.53
371.441	1.5
371.809	1.54
372.177	1.47
372.544	1.54
372.912	1.65
373.28	1.46
373.647	1.59
374.015	1.66
374.383	1.84
374.75	1.79
375.118	1.51
375.485	1.48
375.853	1.53
376.22	1.48
376.587	1.58
376.955	1.68
377.322	1.6
377.689	1.49
378.056	1.53
378.423	1.53
378.79	1.6
379.157	1.58
379.524	1.5
379.891	1.51
380.258	1.59
380.625	1.49
380.992	1.51
381.359	1.54
381.726	1.78
382.092	1.51
382.459	1.79
382.826	1.59
383.192	1.45
383.559	1.47
383.925	1.72
384.292	1.53
384.658	1.71
385.025	1.55
385.391	1.78
385.757	1.59
386.123	1.6
386.49	1.52
386.856	1.59
387.222	1.61
387.588	1.64
387.954	1.84
388.32	1.63
388.686	1.67
389.052	1.56
389.418	1.74
389.784	1.48
390.15	1.68
390.515	1.4
390.881	1.73
391.247	1.43
391.613	1.74
391.978	1.53
392.344	1.69
392.709	1.67
393.075	1.65
393.44	1.6
393.806	1.6
394.171	1.47
394.536	1.46
394.902	1.47
395.267	1.52
395.632	1.54
395.997	1.48
396.362	1.68
396.727	1.54
397.092	1.44
397.457	1.6
397.822	1.52
398.187	1.46
398.552	1.53
398.917	1.76
399.282	1.5
399.646	1.55
400.011	1.67
400.376	1.47
400.74	1.56
401.105	1.58
401.47	1.61
401.834	1.39
402.199	1.48
402.563	1.45
402.927	1.47
403.292	1.72
403.656	1.6
404.02	1.57
404.384	1.66
404.749	1.56
405.113	1.61
405.477	1.6
405.841	1.69
406.205	1.53
406.569	1.47
406.933	1.5
407.296	1.68
407.66	1.49
408.024	1.54
408.388	1.56
408.752	1.4
409.115	1.7
409.479	1.59
409.842	1.49
410.206	1.43
410.569	1.44
410.933	1.43
411.296	1.37
411.66	1.67
412.023	1.45
412.386	1.49
412.749	1.39
413.113	1.62
413.476	1.53
413.839	1.42
414.202	1.49
414.565	1.36
414.928	1.44
415.291	1.4
415.654	1.44
416.017	1.46
416.38	1.46
416.742	1.27
417.105	1.33
417.468	1.41
417.83	1.45
418.193	1.49
418.556	1.32
418.918	1.35
419.281	1.47
419.643	1.39
420.005	1.4
420.368	1.39
420.73	1.35
421.092	1.45
421.455	1.53
421.817	1.33
422.179	1.4
422.541	1.47
422.903	1.53
423.265	1.45
423.627	1.47
423.989	1.34
424.351	1.47
424.713	1.43
425.075	1.35
425.436	1.39
425.798	1.42
426.16	1.42
426.521	1.35
426.883	1.34
427.245	1.39
427.606	1.34
427.967	1.29
428.329	1.41
428.69	1.43
429.052	1.35
429.413	1.42
429.774	1.35
430.135	1.38
430.497	1.47
430.858	1.32
431.219	1.48
431.58	1.37
431.941	1.37
432.302	1.39
432.663	1.33
433.024	1.34
433.384	1.33
433.745	1.29
434.106	1.33
434.467	1.31
434.827	1.41
435.188	1.31
435.548	1.37
435.909	1.37
436.269	1.4
436.63	1.27
436.99	1.31
437.351	1.26
437.711	1.28
438.071	1.34
438.431	1.24
438.792	1.25
439.152	1.29
439.512	1.26
439.872	1.23
440.232	1.32
440.592	1.25
440.952	1.23
441.312	1.22
441.671	1.27
442.031	1.22
442.391	1.19
442.751	1.23
443.11	1.23
443.47	1.14
443.83	1.17
444.189	1.19
444.549	1.18
444.908	1.15
445.267	1.19
445.627	1.16
445.986	1.12
446.345	1.15
446.705	1.16
447.064	1.17
447.423	1.16
447.782	1.15
448.141	1.13
448.5	1.06
448.859	1.09
449.218	1.07
449.577	1.11
449.936	1.09
450.295	1.1
450.653	1.07
451.012	1.07
451.371	1.09
451.729	1.04
452.088	1.07
452.447	1.03
452.805	1.03
453.163	1.03
453.522	1.03
453.88	1
454.239	1.01
454.597	1.01
454.955	0.99
455.313	0.97
455.671	0.97
456.029	0.98
456.388	0.94
456.746	0.93
457.104	0.93
457.461	0.9
457.819	0.9
458.177	0.9
458.535	0.88
458.893	0.87
459.25	0.89
459.608	0.86
459.966	0.84
460.323	0.83
460.681	0.82
461.038	0.8
461.396	0.8
461.753	0.78
462.111	0.78
462.468	0.77
462.825	0.75
463.182	0.75
463.54	0.72
463.897	0.73
464.254	0.73
464.611	0.71
464.968	0.71
465.325	0.7
465.682	0.68
466.039	0.69
466.395	0.67
466.752	0.66
467.109	0.64
467.466	0.65
467.822	0.64
468.179	0.62
468.535	0.62
468.892	0.61
469.248	0.6
469.605	0.59
469.961	0.58
470.318	0.59
470.674	0.56
471.03	0.56
471.386	0.55
471.743	0.55
472.099	0.53
472.455	0.52
472.811	0.51
473.167	0.52
473.523	0.5
473.879	0.51
474.235	0.49
474.59	0.48
474.946	0.48
475.302	0.47
475.657	0.46
476.013	0.47
476.369	0.45
476.724	0.44
477.08	0.44
477.435	0.43
477.791	0.43
478.146	0.42
478.501	0.42
478.857	0.41
479.212	0.4
479.567	0.4
479.922	0.38
480.277	0.38
480.632	0.37
480.987	0.37
481.342	0.36
481.697	0.35
482.052	0.36
482.407	0.35
482.762	0.34
483.116	0.34
483.471	0.32
483.826	0.31
484.18	0.32
484.535	0.31
484.89	0.31
485.244	0.31
485.598	0.31
485.953	0.3
486.307	0.29
486.661	0.3
487.016	0.28
487.37	0.28
487.724	0.28
488.078	0.28
488.432	0.27
488.786	0.27
489.14	0.27
489.494	0.25
489.848	0.26
490.202	0.25
490.556	0.25
490.91	0.25
491.263	0.24
491.617	0.24
491.971	0.24
492.324	0.23
492.678	0.24
493.031	0.23
493.385	0.23
493.738	0.23
494.091	0.23
494.445	0.22
494.798	0.22
495.151	0.21
495.504	0.22
495.857	0.21
496.21	0.22
496.564	0.22
496.916	0.21
497.269	0.2
497.622	0.21
497.975	0.21
498.328	0.2
498.681	0.2
499.033	0.19
499.386	0.19
499.739	0.19
500.091	0.18
500.444	0.18
500.796	0.19
501.149	0.18
501.501	0.19
501.854	0.18
502.206	0.18
502.558	0.19
502.91	0.18
503.263	0.18
503.615	0.18
503.967	0.18
504.319	0.17
504.671	0.17
505.023	0.17
505.375	0.17
505.726	0.17
506.078	0.16
506.43	0.17
506.782	0.17
507.133	0.17
507.485	0.17
507.837	0.18
508.188	0.17
508.54	0.18
508.891	0.18
509.243	0.16
509.594	0.17
509.945	0.17
510.296	0.16
510.648	0.16
510.999	0.16
511.35	0.16
511.701	0.17
512.052	0.17
512.403	0.16
512.754	0.16
513.105	0.16
513.456	0.16
513.807	0.16
514.157	0.17
514.508	0.16
514.859	0.16
515.209	0.17
515.56	0.17
515.91	0.16
516.261	0.17
516.611	0.16
516.962	0.16
517.312	0.16
517.662	0.17
518.013	0.16
518.363	0.16
518.713	0.16
519.063	0.17
519.413	0.17
519.763	0.17
520.113	0.17
520.463	0.17
520.813	0.17
521.163	0.17
521.512	0.17
521.862	0.16
522.212	0.17
522.562	0.17
522.911	0.16
523.261	0.16
523.61	0.16
523.96	0.16
524.309	0.17
524.658	0.17
525.008	0.16
525.357	0.16
525.706	0.17
526.056	0.16
526.405	0.16
526.754	0.16
527.103	0.16
527.452	0.16
527.801	0.17
528.15	0.16
528.499	0.16
528.847	0.16
529.196	0.18
529.545	0.17
529.893	0.18
530.242	0.17
530.591	0.18
530.939	0.17
531.288	0.17
531.636	0.18
531.985	0.17
532.333	0.17
532.681	0.17
533.029	0.17
533.378	0.17
533.726	0.17
534.074	0.18
534.422	0.16
534.77	0.17
535.118	0.17
535.466	0.17
535.814	0.17
536.162	0.18
536.509	0.17
536.857	0.17
537.205	0.17
537.552	0.18
537.9	0.17
538.248	0.17
538.595	0.18
538.943	0.18
539.29	0.17
539.637	0.17
539.985	0.17
540.332	0.17
540.679	0.17
541.026	0.17
541.373	0.18
541.721	0.17
542.068	0.17
542.415	0.17
542.762	0.16
543.108	0.17
543.455	0.16
543.802	0.17
544.149	0.17
544.496	0.17
544.842	0.17
545.189	0.16
545.535	0.16
545.882	0.17
546.228	0.16
546.575	0.16
546.921	0.16
547.267	0.16
547.614	0.16
547.96	0.17
548.306	0.16
548.652	0.16
548.998	0.17
549.344	0.16
549.69	0.17
550.036	0.17
550.382	0.16
550.728	0.17
551.074	0.17
551.42	0.17
551.765	0.17
552.111	0.17
552.457	0.17
552.802	0.17
553.148	0.17
553.493	0.17
553.839	0.17
554.184	0.18
554.529	0.16
554.875	0.17
555.22	0.17
555.565	0.17
555.91	0.16
556.255	0.18
556.6	0.18
556.945	0.16
557.29	0.17
557.635	0.17
557.98	0.17
558.325	0.17
558.67	0.17
559.014	0.17
559.359	0.18
559.704	0.17
560.048	0.17
560.393	0.17
560.737	0.16
561.082	0.17
561.426	0.16
561.77	0.17
562.115	0.16
562.459	0.17
562.803	0.16
563.147	0.17
563.491	0.17
563.835	0.17
564.179	0.17
564.523	0.17
564.867	0.16
565.211	0.17
565.555	0.17
565.899	0.18
566.242	0.17
566.586	0.17
566.93	0.17
567.273	0.18
567.617	0.18
567.96	0.17
568.304	0.18
568.647	0.17
568.99	0.18
569.334	0.18
569.677	0.17
570.02	0.17
570.363	0.18
570.706	0.17
571.049	0.18
571.392	0.19
571.735	0.17
572.078	0.18
572.421	0.18
572.764	0.19
573.106	0.19
573.449	0.18
573.792	0.17
574.134	0.17
574.477	0.18
574.819	0.17
575.162	0.17
575.504	0.17
575.847	0.18
576.189	0.17
576.531	0.17
576.873	0.17
577.215	0.17
577.558	0.17
577.9	0.16
578.242	0.16
578.584	0.17
578.926	0.18
579.267	0.16
579.609	0.17
579.951	0.17
580.293	0.17
580.634	0.17
580.976	0.17
581.318	0.17
581.659	0.17
582.001	0.17
582.342	0.17
582.683	0.17
583.025	0.17
583.366	0.17
583.707	0.17
584.049	0.17
584.39	0.17
584.731	0.17
585.072	0.17
585.413	0.18
585.754	0.17
586.095	0.18
586.435	0.17
586.776	0.18
587.117	0.17
587.458	0.16
587.798	0.17
588.139	0.17
588.48	0.17
588.82	0.16
589.161	0.17
589.501	0.16
589.841	0.16
590.182	0.16
590.522	0.17
590.862	0.17
591.202	0.17
591.542	0.16
591.882	0.17
592.222	0.16
592.562	0.16
592.902	0.17
593.242	0.16
593.582	0.17
593.922	0.16
594.261	0.16
594.601	0.17
594.941	0.16
595.28	0.17
595.62	0.17
595.959	0.16
596.299	0.16
596.638	0.17
596.977	0.17
597.317	0.18
597.656	0.17
597.995	0.17
598.334	0.17
598.673	0.17
599.012	0.17
599.351	0.18
599.69	0.17
600.029	0.18
600.368	0.17
600.707	0.18
601.046	0.17
601.384	0.19
601.723	0.18
602.061	0.17
602.4	0.17
602.738	0.17
603.077	0.17
603.415	0.17
603.754	0.17
604.092	0.17
604.43	0.17
604.768	0.17
605.107	0.17
605.445	0.16
605.783	0.16
606.121	0.16
606.459	0.17
606.796	0.17
607.134	0.16
607.472	0.16
607.81	0.16
608.148	0.16
608.485	0.17
608.823	0.16
609.16	0.17
609.498	0.17
609.835	0.17
610.173	0.16
610.51	0.16
610.847	0.17
611.185	0.17
611.522	0.16
611.859	0.16
612.196	0.17
612.533	0.17
612.87	0.17
613.207	0.17
613.544	0.17
613.881	0.17
614.217	0.17
614.554	0.17
614.891	0.17
615.228	0.17
615.564	0.17
615.901	0.17
616.237	0.17
616.574	0.18
616.91	0.18
617.246	0.17
617.583	0.17
617.919	0.17
618.255	0.17
618.591	0.17
618.927	0.17
619.263	0.17
619.599	0.18
619.935	0.17
620.271	0.17
620.607	0.18
620.943	0.17
621.279	0.17
621.614	0.17
621.95	0.17
622.286	0.17
622.621	0.17
622.957	0.17
623.292	0.16
623.627	0.16
623.963	0.16
624.298	0.16
624.633	0.16
624.968	0.16
625.304	0.16
625.639	0.16
625.974	0.16
626.309	0.16
626.644	0.16
626.979	0.17
627.313	0.16
627.648	0.16
627.983	0.17
628.318	0.16
628.652	0.15
628.987	0.16
629.321	0.16
629.656	0.15
629.99	0.15
630.325	0.15
630.659	0.15
630.993	0.14
631.327	0.15
631.662	0.14
631.996	0.15
632.33	0.15
632.664	0.15
632.998	0.15
633.332	0.14
633.666	0.14
633.999	0.15
634.333	0.14
634.667	0.15
635.001	0.14
635.334	0.14
635.668	0.14
636.001	0.14
636.335	0.14
636.668	0.14
637.001	0.14
637.335	0.14
637.668	0.14
638.001	0.14
638.334	0.14
638.668	0.13
639.001	0.14
639.334	0.14
639.667	0.13
639.999	0.14
640.332	0.14
640.665	0.14
640.998	0.13
641.331	0.14
641.663	0.13
641.996	0.14
642.328	0.14
642.661	0.15
642.993	0.15
643.326	0.15
643.658	0.14
643.99	0.14
644.323	0.14
644.655	0.14
644.987	0.15
645.319	0.15
645.651	0.15
645.983	0.14
646.315	0.14
646.647	0.15
646.979	0.16
647.31	0.15
647.642	0.15
647.974	0.15
648.305	0.15
648.637	0.15
648.968	0.15
649.3	0.14
649.631	0.15
649.963	0.14
650.294	0.15
650.625	0.14
650.957	0.14
651.288	0.14
651.619	0.14
651.95	0.15
652.281	0.14
652.612	0.14
652.943	0.14
653.274	0.14
653.604	0.14
653.935	0.14
654.266	0.14
654.596	0.14
654.927	0.14
655.258	0.14
655.588	0.14
655.918	0.14
656.249	0.12
656.579	0.13
656.909	0.14
657.24	0.13
657.57	0.14
657.9	0.14
658.23	0.14
658.56	0.14
658.89	0.14
659.22	0.13
659.55	0.13
659.88	0.14
660.209	0.14
660.539	0.15
660.869	0.14
661.198	0.14
661.528	0.14
661.857	0.14
662.187	0.13
662.516	0.14
662.846	0.14
663.175	0.14
663.504	0.13
663.833	0.13
664.163	0.14
664.492	0.13
664.821	0.13
665.15	0.13
665.479	0.13
665.807	0.12
666.136	0.13
666.465	0.13
666.794	0.13
667.122	0.13
667.451	0.13
667.78	0.13
668.108	0.14
668.437	0.14
668.765	0.14
669.093	0.14
669.422	0.14
669.75	0.14
670.078	0.14
670.406	0.14
670.734	0.14
671.062	0.14
671.39	0.13
671.718	0.14
672.046	0.14
672.374	0.13
672.702	0.13
673.029	0.13
673.357	0.13
673.685	0.13
674.012	0.13
674.34	0.13
674.667	0.13
674.995	0.13
675.322	0.13
675.649	0.13
675.977	0.14
676.304	0.13
676.631	0.13
676.958	0.12
677.285	0.13
677.612	0.12
677.939	0.12
678.266	0.13
678.593	0.12
678.92	0.13
679.246	0.13
679.573	0.12
679.9	0.12
680.226	0.12
680.553	0.12
680.879	0.12
681.206	0.13
681.532	0.12
681.858	0.13
682.184	0.12
682.511	0.13
682.837	0.12
683.163	0.13
683.489	0.13
683.815	0.13
684.141	0.13
684.467	0.12
684.793	0.12
685.118	0.12
685.444	0.12
685.77	0.12
686.095	0.12
686.421	0.12
686.746	0.12
687.072	0.12
687.397	0.11
687.723	0.12
688.048	0.12
688.373	0.12
688.698	0.11
689.023	0.11
689.349	0.11
689.674	0.12
689.999	0.11
690.323	0.11
690.648	0.11
690.973	0.1
691.298	0.11
691.623	0.11
691.947	0.11
692.272	0.11
692.596	0.1
692.921	0.11
693.245	0.11
693.57	0.11
693.894	0.11
694.218	0.11
694.543	0.11
694.867	0.11
695.191	0.11
695.515	0.12
695.839	0.11
696.163	0.12
696.487	0.11
696.811	0.1
697.135	0.11
697.458	0.11
697.782	0.11
698.106	0.11
698.429	0.11
698.753	0.11
699.076	0.11
699.4	0.11
699.723	0.11
700.046	0.11
700.37	0.11
700.693	0.11
701.016	0.11
701.339	0.1
701.662	0.11
701.985	0.11
702.308	0.11
702.631	0.11
702.954	0.11
703.277	0.11
703.599	0.1
703.922	0.1
704.245	0.1
704.567	0.09
704.89	0.1
705.212	0.1
705.535	0.09
705.857	0.09
706.179	0.09
706.502	0.1
706.824	0.09
707.146	0.09
707.468	0.1
707.79	0.1
708.112	0.09
708.434	0.1
708.756	0.09
709.078	0.09
709.399	0.09
709.721	0.09
710.043	0.1
710.364	0.1
710.686	0.09
711.007	0.1
711.329	0.1
711.65	0.1
711.972	0.09
712.293	0.1
712.614	0.1
712.935	0.1
713.256	0.1
713.577	0.11
713.898	0.1
714.219	0.1
714.54	0.1
714.861	0.09
715.182	0.11
715.503	0.1
715.823	0.1
716.144	0.09
716.464	0.09
716.785	0.09
717.105	0.09
717.426	0.1
717.746	0.09
718.066	0.08
718.387	0.09
718.707	0.09
719.027	0.09
719.347	0.08
719.667	0.09
719.987	0.08
720.307	0.08
720.627	0.09
720.947	0.09
721.266	0.08
721.586	0.08
721.906	0.08
722.225	0.07
722.545	0.08
722.864	0.08
723.184	0.08
723.503	0.09
