Data from 12-12-AQDScycling_Absorbance__280__00280.txt Node

Date: Tue Dec 12 12:07:02 EST 2023
User: kyuminlee
Spectrometer: FLMS00943
Trigger mode: 0
Integration Time (sec): 1.000000E-1
Scans to average: 1
Electric dark correction enabled: true
Nonlinearity correction enabled: false
Boxcar width: 0
XAxis mode: Wavelengths
Number of Pixels in Spectrum: 2048
>>>>>Begin Spectral Data<<<<<
179.651	-0
180.037	-0
180.424	-0
180.81	1.17
181.197	-0.09
181.583	-0
181.97	-0.22
182.356	-0
182.743	-0
183.129	-0.15
183.515	0.27
183.901	-2.04
184.288	0.05
184.674	-0
185.06	-0.52
185.446	-0
185.832	-0
186.218	0.06
186.604	0.89
186.99	-0
187.376	-0
187.762	-0
188.148	0.15
188.534	-0.33
188.92	0.1
189.305	0.11
189.691	0.17
190.077	0.16
190.463	0.18
190.848	0.1
191.234	0.1
191.619	0.14
192.005	0.07
192.391	0.18
192.776	0.14
193.161	0.29
193.547	0.22
193.932	0.2
194.318	0.05
194.703	0.11
195.088	0.29
195.473	0.17
195.859	0.21
196.244	0.17
196.629	0.15
197.014	0.19
197.399	0.23
197.784	0.15
198.169	0.21
198.554	0.15
198.939	0.13
199.324	0.14
199.709	0.07
200.094	0.1
200.478	0.12
200.863	0.18
201.248	0.1
201.633	0.17
202.017	0.13
202.402	0.25
202.787	0.13
203.171	0.37
203.556	0.16
203.94	0.22
204.325	0.29
204.709	0.28
205.093	0.15
205.478	0.28
205.862	0.13
206.246	0.32
206.631	0.12
207.015	0.13
207.399	0.19
207.783	0.17
208.167	0.11
208.551	0.31
208.935	0.22
209.319	0.2
209.703	0.18
210.087	0.27
210.471	0.23
210.855	0.24
211.239	0.37
211.623	0.26
212.007	0.28
212.39	0.29
212.774	0.37
213.158	0.23
213.541	0.31
213.925	0.21
214.309	0.36
214.692	0.36
215.076	0.19
215.459	0.16
215.842	0.24
216.226	0.32
216.609	0.44
216.993	0.18
217.376	0.47
217.759	0.31
218.142	0.29
218.525	0.61
218.909	0.41
219.292	0.34
219.675	0.39
220.058	0.52
220.441	0.48
220.824	0.51
221.207	0.71
221.59	0.4
221.973	0.54
222.355	0.56
222.738	0.99
223.121	0.65
223.504	0.5
223.886	0.67
224.269	0.79
224.652	0.58
225.034	0.67
225.417	0.74
225.799	0.94
226.182	0.91
226.564	0.78
226.947	0.75
227.329	0.79
227.711	1.12
228.094	1.4
228.476	0.95
228.858	0.91
229.24	0.92
229.623	1.11
230.005	0.95
230.387	0.89
230.769	0.88
231.151	0.94
231.533	0.94
231.915	0.99
232.297	1.06
232.679	0.98
233.061	1.09
233.442	1.07
233.824	1.17
234.206	1.11
234.588	1.01
234.969	1.08
235.351	0.9
235.733	1.05
236.114	1.14
236.496	1.04
236.877	1.25
237.259	1.04
237.64	1.06
238.022	0.99
238.403	1.1
238.784	1.04
239.165	1.14
239.547	1.1
239.928	1.22
240.309	1.05
240.69	1.21
241.071	1.15
241.452	1.31
241.834	1.1
242.215	1.23
242.595	1.13
242.976	1.27
243.357	1.19
243.738	1.02
244.119	1.33
244.5	1.2
244.881	1.29
245.261	1.28
245.642	1.18
246.023	1.38
246.403	1.21
246.784	1.24
247.164	1.29
247.545	1.31
247.925	1.33
248.306	1.25
248.686	1.37
249.067	1.25
249.447	1.35
249.827	1.37
250.207	1.64
250.588	1.24
250.968	1.62
251.348	1.42
251.728	1.51
252.108	1.41
252.488	1.36
252.868	1.39
253.248	1.33
253.628	1.48
254.008	1.51
254.388	1.29
254.768	1.47
255.147	1.42
255.527	1.3
255.907	1.4
256.287	1.46
256.666	1.4
257.046	1.49
257.425	1.55
257.805	1.36
258.184	1.36
258.564	1.42
258.943	1.46
259.323	1.38
259.702	1.47
260.081	1.52
260.461	1.73
260.84	1.43
261.219	1.88
261.598	1.57
261.977	1.5
262.356	1.45
262.736	1.39
263.115	1.46
263.494	1.48
263.873	1.51
264.251	1.44
264.63	1.75
265.009	1.46
265.388	1.48
265.767	1.38
266.145	1.48
266.524	1.46
266.903	1.34
267.281	1.36
267.66	1.42
268.039	1.48
268.417	1.49
268.796	1.37
269.174	1.47
269.552	1.47
269.931	1.5
270.309	1.39
270.687	1.55
271.066	1.5
271.444	1.41
271.822	1.43
272.2	1.41
272.578	1.46
272.956	1.5
273.334	1.55
273.712	1.59
274.09	1.48
274.468	1.48
274.846	1.47
275.224	1.35
275.602	1.46
275.98	1.58
276.357	1.3
276.735	1.64
277.113	1.45
277.49	1.32
277.868	1.32
278.246	1.45
278.623	1.44
279.001	1.32
279.378	1.42
279.756	1.56
280.133	1.63
280.51	1.47
280.888	1.5
281.265	1.46
281.642	1.39
282.019	1.78
282.396	1.66
282.773	1.61
283.151	1.46
283.528	1.65
283.905	1.51
284.282	1.47
284.659	1.5
285.035	1.36
285.412	1.34
285.789	1.68
286.166	1.52
286.543	1.43
286.919	1.6
287.296	1.43
287.673	1.88
288.049	1.53
288.426	1.57
288.802	1.58
289.179	1.51
289.555	1.62
289.932	1.54
290.308	1.31
290.684	1.38
291.061	1.28
291.437	1.48
291.813	1.39
292.189	1.32
292.565	1.31
292.942	1.44
293.318	1.42
293.694	1.58
294.07	1.42
294.446	1.51
294.822	1.79
295.197	1.51
295.573	1.61
295.949	1.49
296.325	1.53
296.701	1.57
297.076	1.87
297.452	1.72
297.828	1.42
298.203	1.58
298.579	1.4
298.954	1.5
299.33	1.43
299.705	1.53
300.081	1.44
300.456	1.51
300.831	1.5
301.206	1.44
301.582	1.56
301.957	1.53
302.332	1.59
302.707	1.33
303.082	1.4
303.457	1.63
303.832	1.46
304.207	1.43
304.582	1.52
304.957	1.39
305.332	1.48
305.707	1.48
306.082	1.52
306.456	1.65
306.831	1.47
307.206	1.43
307.58	1.61
307.955	1.38
308.33	1.44
308.704	1.42
309.079	1.4
309.453	1.62
309.828	1.4
310.202	1.45
310.576	1.4
310.951	1.44
311.325	1.48
311.699	1.53
312.073	1.42
312.447	1.44
312.821	1.45
313.196	1.43
313.57	1.31
313.944	1.45
314.317	1.47
314.691	1.39
315.065	1.39
315.439	1.5
315.813	1.48
316.187	1.49
316.56	1.52
316.934	1.47
317.308	1.52
317.681	1.5
318.055	1.53
318.428	1.45
318.802	1.65
319.175	1.46
319.549	1.48
319.922	1.28
320.295	1.38
320.669	1.62
321.042	1.46
321.415	1.58
321.788	1.48
322.162	1.38
322.535	1.5
322.908	1.6
323.281	1.46
323.654	1.61
324.027	1.35
324.4	1.55
324.773	1.46
325.145	1.54
325.518	1.43
325.891	1.35
326.264	1.59
326.636	1.42
327.009	1.43
327.382	1.5
327.754	1.56
328.127	1.53
328.499	1.63
328.872	1.49
329.244	1.49
329.616	1.41
329.989	1.5
330.361	1.42
330.733	1.43
331.106	1.54
331.478	1.57
331.85	1.42
332.222	1.43
332.594	1.46
332.966	1.46
333.338	1.6
333.71	1.52
334.082	1.5
334.454	1.5
334.826	1.48
335.197	1.43
335.569	1.42
335.941	1.38
336.312	1.53
336.684	1.51
337.056	1.43
337.427	1.65
337.799	1.58
338.17	1.55
338.542	1.44
338.913	1.62
339.284	1.56
339.656	1.44
340.027	1.48
340.398	1.47
340.769	1.41
341.141	1.59
341.512	1.46
341.883	1.47
342.254	1.57
342.625	1.51
342.996	1.48
343.367	1.45
343.738	1.54
344.108	1.44
344.479	1.72
344.85	1.35
345.221	1.59
345.591	1.36
345.962	1.45
346.333	1.4
346.703	1.31
347.074	1.35
347.444	1.27
347.815	1.4
348.185	1.47
348.556	1.34
348.926	1.3
349.296	1.52
349.666	1.33
350.037	1.34
350.407	1.26
350.777	1.34
351.147	1.38
351.517	1.46
351.887	1.3
352.257	1.55
352.627	1.25
352.997	1.31
353.367	1.38
353.737	1.38
354.106	1.46
354.476	1.27
354.846	1.43
355.216	1.36
355.585	1.37
355.955	1.3
356.324	1.35
356.694	1.39
357.063	1.35
357.433	1.31
357.802	1.35
358.171	1.39
358.541	1.35
358.91	1.39
359.279	1.37
359.648	1.33
360.017	1.33
360.387	1.29
360.756	1.31
361.125	1.33
361.494	1.38
361.863	1.3
362.231	1.29
362.6	1.42
362.969	1.35
363.338	1.29
363.707	1.36
364.075	1.37
364.444	1.28
364.813	1.31
365.181	1.27
365.55	1.33
365.918	1.32
366.287	1.26
366.655	1.43
367.024	1.37
367.392	1.31
367.76	1.34
368.128	1.33
368.497	1.28
368.865	1.3
369.233	1.36
369.601	1.32
369.969	1.28
370.337	1.29
370.705	1.38
371.073	1.43
371.441	1.43
371.809	1.23
372.177	1.32
372.544	1.29
372.912	1.44
373.28	1.34
373.647	1.35
374.015	1.45
374.383	1.49
374.75	1.45
375.118	1.4
375.485	1.52
375.853	1.39
376.22	1.33
376.587	1.34
376.955	1.43
377.322	1.43
377.689	1.43
378.056	1.32
378.423	1.33
378.79	1.43
379.157	1.37
379.524	1.39
379.891	1.37
380.258	1.42
380.625	1.34
380.992	1.39
381.359	1.42
381.726	1.41
382.092	1.38
382.459	1.44
382.826	1.54
383.192	1.39
383.559	1.4
383.925	1.43
384.292	1.42
384.658	1.49
385.025	1.37
385.391	1.55
385.757	1.47
386.123	1.52
386.49	1.43
386.856	1.63
387.222	1.55
387.588	1.46
387.954	1.74
388.32	1.45
388.686	1.52
389.052	1.46
389.418	1.54
389.784	1.5
390.15	1.56
390.515	1.39
390.881	1.7
391.247	1.42
391.613	1.63
391.978	1.58
392.344	1.65
392.709	1.6
393.075	1.54
393.44	1.61
393.806	1.63
394.171	1.44
394.536	1.44
394.902	1.56
395.267	1.44
395.632	1.36
395.997	1.42
396.362	1.51
396.727	1.59
397.092	1.53
397.457	1.47
397.822	1.45
398.187	1.42
398.552	1.41
398.917	1.45
399.282	1.42
399.646	1.51
400.011	1.47
400.376	1.48
400.74	1.37
401.105	1.55
401.47	1.51
401.834	1.33
402.199	1.42
402.563	1.38
402.927	1.43
403.292	1.5
403.656	1.47
404.02	1.38
404.384	1.41
404.749	1.35
405.113	1.46
405.477	1.4
405.841	1.43
406.205	1.39
406.569	1.26
406.933	1.32
407.296	1.34
407.66	1.4
408.024	1.39
408.388	1.42
408.752	1.36
409.115	1.41
409.479	1.3
409.842	1.24
410.206	1.27
410.569	1.33
410.933	1.23
411.296	1.28
411.66	1.22
412.023	1.22
412.386	1.22
412.749	1.19
413.113	1.31
413.476	1.22
413.839	1.19
414.202	1.19
414.565	1.17
414.928	1.19
415.291	1.18
415.654	1.15
416.017	1.21
416.38	1.16
416.742	1.16
417.105	1.17
417.468	1.17
417.83	1.17
418.193	1.19
418.556	1.13
418.918	1.14
419.281	1.18
419.643	1.18
420.005	1.13
420.368	1.17
420.73	1.1
421.092	1.16
421.455	1.17
421.817	1.1
422.179	1.15
422.541	1.15
422.903	1.1
423.265	1.15
423.627	1.16
423.989	1.17
424.351	1.13
424.713	1.12
425.075	1.11
425.436	1.09
425.798	1.09
426.16	1.12
426.521	1.13
426.883	1.12
427.245	1.11
427.606	1.03
427.967	1.03
428.329	1.13
428.69	1.09
429.052	1.04
429.413	1.09
429.774	1.08
430.135	1.07
430.497	1.1
430.858	1.05
431.219	1.05
431.58	0.99
431.941	1.03
432.302	1.06
432.663	1.01
433.024	1.1
433.384	1.07
433.745	1.02
434.106	1.01
434.467	1.01
434.827	1.02
435.188	1.01
435.548	1.1
435.909	1
436.269	1.03
436.63	0.99
436.99	1
437.351	0.96
437.711	0.99
438.071	0.97
438.431	0.98
438.792	0.99
439.152	0.95
439.512	0.95
439.872	0.96
440.232	0.95
440.592	0.96
440.952	0.94
441.312	0.95
441.671	0.95
442.031	0.96
442.391	0.92
442.751	0.95
443.11	0.91
443.47	0.93
443.83	0.89
444.189	0.92
444.549	0.89
444.908	0.9
445.267	0.87
445.627	0.88
445.986	0.87
446.345	0.86
446.705	0.85
447.064	0.88
447.423	0.85
447.782	0.86
448.141	0.84
448.5	0.82
448.859	0.85
449.218	0.84
449.577	0.84
449.936	0.82
450.295	0.81
450.653	0.82
451.012	0.83
451.371	0.81
451.729	0.8
452.088	0.81
452.447	0.79
452.805	0.79
453.163	0.77
453.522	0.78
453.88	0.76
454.239	0.75
454.597	0.75
454.955	0.73
455.313	0.73
455.671	0.74
456.029	0.73
456.388	0.72
456.746	0.72
457.104	0.71
457.461	0.69
457.819	0.69
458.177	0.68
458.535	0.67
458.893	0.67
459.25	0.66
459.608	0.66
459.966	0.64
460.323	0.63
460.681	0.62
461.038	0.62
461.396	0.61
461.753	0.6
462.111	0.6
462.468	0.58
462.825	0.58
463.182	0.57
463.54	0.57
463.897	0.57
464.254	0.56
464.611	0.57
464.968	0.55
465.325	0.55
465.682	0.54
466.039	0.54
466.395	0.52
466.752	0.51
467.109	0.51
467.466	0.51
467.822	0.5
468.179	0.49
468.535	0.48
468.892	0.48
469.248	0.47
469.605	0.47
469.961	0.48
470.318	0.47
470.674	0.47
471.03	0.45
471.386	0.46
471.743	0.44
472.099	0.43
472.455	0.43
472.811	0.42
473.167	0.42
473.523	0.41
473.879	0.41
474.235	0.4
474.59	0.39
474.946	0.39
475.302	0.39
475.657	0.37
476.013	0.37
476.369	0.36
476.724	0.37
477.08	0.37
477.435	0.36
477.791	0.36
478.146	0.35
478.501	0.34
478.857	0.34
479.212	0.34
479.567	0.33
479.922	0.32
480.277	0.32
480.632	0.32
480.987	0.32
481.342	0.31
481.697	0.31
482.052	0.3
482.407	0.3
482.762	0.29
483.116	0.29
483.471	0.29
483.826	0.28
484.18	0.28
484.535	0.28
484.89	0.26
485.244	0.27
485.598	0.27
485.953	0.26
486.307	0.26
486.661	0.26
487.016	0.25
487.37	0.26
487.724	0.26
488.078	0.25
488.432	0.24
488.786	0.25
489.14	0.24
489.494	0.24
489.848	0.23
490.202	0.23
490.556	0.23
490.91	0.23
491.263	0.23
491.617	0.23
491.971	0.23
492.324	0.22
492.678	0.22
493.031	0.23
493.385	0.22
493.738	0.22
494.091	0.22
494.445	0.22
494.798	0.21
495.151	0.21
495.504	0.21
495.857	0.2
496.21	0.21
496.564	0.2
496.916	0.2
497.269	0.2
497.622	0.2
497.975	0.2
498.328	0.21
498.681	0.2
499.033	0.2
499.386	0.2
499.739	0.19
500.091	0.19
500.444	0.19
500.796	0.19
501.149	0.18
501.501	0.19
501.854	0.19
502.206	0.18
502.558	0.18
502.91	0.19
503.263	0.18
503.615	0.19
503.967	0.18
504.319	0.18
504.671	0.18
505.023	0.17
505.375	0.17
505.726	0.18
506.078	0.18
506.43	0.16
506.782	0.17
507.133	0.17
507.485	0.17
507.837	0.18
508.188	0.17
508.54	0.17
508.891	0.18
509.243	0.17
509.594	0.18
509.945	0.17
510.296	0.16
510.648	0.18
510.999	0.17
511.35	0.16
511.701	0.17
512.052	0.17
512.403	0.17
512.754	0.17
513.105	0.16
513.456	0.16
513.807	0.16
514.157	0.17
514.508	0.17
514.859	0.16
515.209	0.16
515.56	0.16
515.91	0.16
516.261	0.17
516.611	0.16
516.962	0.17
517.312	0.16
517.662	0.16
518.013	0.16
518.363	0.16
518.713	0.16
519.063	0.17
519.413	0.16
519.763	0.16
520.113	0.16
520.463	0.17
520.813	0.16
521.163	0.17
521.512	0.16
521.862	0.16
522.212	0.17
522.562	0.17
522.911	0.16
523.261	0.16
523.61	0.16
523.96	0.16
524.309	0.17
524.658	0.17
525.008	0.16
525.357	0.16
525.706	0.17
526.056	0.16
526.405	0.16
526.754	0.16
527.103	0.16
527.452	0.16
527.801	0.17
528.15	0.17
528.499	0.16
528.847	0.17
529.196	0.17
529.545	0.17
529.893	0.17
530.242	0.17
530.591	0.17
530.939	0.18
531.288	0.17
531.636	0.18
531.985	0.17
532.333	0.17
532.681	0.18
533.029	0.17
533.378	0.17
533.726	0.17
534.074	0.17
534.422	0.17
534.77	0.18
535.118	0.17
535.466	0.17
535.814	0.18
536.162	0.18
536.509	0.18
536.857	0.18
537.205	0.18
537.552	0.18
537.9	0.18
538.248	0.18
538.595	0.17
538.943	0.18
539.29	0.18
539.637	0.17
539.985	0.18
540.332	0.17
540.679	0.18
541.026	0.17
541.373	0.17
541.721	0.17
542.068	0.17
542.415	0.17
542.762	0.16
543.108	0.16
543.455	0.16
543.802	0.16
544.149	0.16
544.496	0.17
544.842	0.16
545.189	0.16
545.535	0.16
545.882	0.17
546.228	0.17
546.575	0.16
546.921	0.16
547.267	0.16
547.614	0.16
547.96	0.16
548.306	0.16
548.652	0.16
548.998	0.17
549.344	0.16
549.69	0.17
550.036	0.17
550.382	0.16
550.728	0.17
551.074	0.18
551.42	0.17
551.765	0.18
552.111	0.18
552.457	0.18
552.802	0.17
553.148	0.17
553.493	0.18
553.839	0.18
554.184	0.17
554.529	0.17
554.875	0.18
555.22	0.18
555.565	0.18
555.91	0.17
556.255	0.18
556.6	0.18
556.945	0.17
557.29	0.17
557.635	0.18
557.98	0.18
558.325	0.18
558.67	0.17
559.014	0.18
559.359	0.17
559.704	0.18
560.048	0.16
560.393	0.18
560.737	0.17
561.082	0.18
561.426	0.17
561.77	0.17
562.115	0.16
562.459	0.17
562.803	0.17
563.147	0.16
563.491	0.17
563.835	0.17
564.179	0.17
564.523	0.16
564.867	0.17
565.211	0.18
565.555	0.17
565.899	0.17
566.242	0.18
566.586	0.17
566.93	0.18
567.273	0.18
567.617	0.17
567.96	0.17
568.304	0.18
568.647	0.18
568.99	0.18
569.334	0.19
569.677	0.18
570.02	0.18
570.363	0.18
570.706	0.18
571.049	0.18
571.392	0.18
571.735	0.17
572.078	0.17
572.421	0.18
572.764	0.17
573.106	0.17
573.449	0.17
573.792	0.18
574.134	0.17
574.477	0.18
574.819	0.17
575.162	0.17
575.504	0.17
575.847	0.17
576.189	0.17
576.531	0.18
576.873	0.18
577.215	0.18
577.558	0.18
577.9	0.17
578.242	0.17
578.584	0.18
578.926	0.18
579.267	0.17
579.609	0.17
579.951	0.17
580.293	0.18
580.634	0.17
580.976	0.18
581.318	0.17
581.659	0.17
582.001	0.17
582.342	0.18
582.683	0.18
583.025	0.16
583.366	0.17
583.707	0.18
584.049	0.18
584.39	0.17
584.731	0.17
585.072	0.17
585.413	0.18
585.754	0.18
586.095	0.17
586.435	0.18
586.776	0.17
587.117	0.17
587.458	0.17
587.798	0.17
588.139	0.17
588.48	0.17
588.82	0.17
589.161	0.17
589.501	0.17
589.841	0.17
590.182	0.17
590.522	0.16
590.862	0.17
591.202	0.17
591.542	0.17
591.882	0.17
592.222	0.17
592.562	0.17
592.902	0.17
593.242	0.16
593.582	0.18
593.922	0.17
594.261	0.16
594.601	0.17
594.941	0.17
595.28	0.17
595.62	0.17
595.959	0.17
596.299	0.17
596.638	0.17
596.977	0.17
597.317	0.18
597.656	0.16
597.995	0.17
598.334	0.17
598.673	0.17
599.012	0.17
599.351	0.17
599.69	0.16
600.029	0.17
600.368	0.17
600.707	0.17
601.046	0.16
601.384	0.17
601.723	0.18
602.061	0.16
602.4	0.17
602.738	0.17
603.077	0.17
603.415	0.17
603.754	0.17
604.092	0.17
604.43	0.17
604.768	0.17
605.107	0.17
605.445	0.16
605.783	0.17
606.121	0.16
606.459	0.17
606.796	0.18
607.134	0.16
607.472	0.16
607.81	0.16
608.148	0.17
608.485	0.17
608.823	0.17
609.16	0.16
609.498	0.17
609.835	0.17
610.173	0.17
610.51	0.17
610.847	0.17
611.185	0.17
611.522	0.18
611.859	0.17
612.196	0.17
612.533	0.17
612.87	0.17
613.207	0.18
613.544	0.17
613.881	0.18
614.217	0.18
614.554	0.17
614.891	0.17
615.228	0.17
615.564	0.17
615.901	0.17
616.237	0.18
616.574	0.17
616.91	0.18
617.246	0.18
617.583	0.17
617.919	0.18
618.255	0.18
618.591	0.17
618.927	0.17
619.263	0.18
619.599	0.19
619.935	0.18
620.271	0.18
620.607	0.18
620.943	0.17
621.279	0.17
621.614	0.17
621.95	0.17
622.286	0.16
622.621	0.17
622.957	0.16
623.292	0.16
623.627	0.15
623.963	0.16
624.298	0.17
624.633	0.16
624.968	0.16
625.304	0.16
625.639	0.16
625.974	0.16
626.309	0.15
626.644	0.16
626.979	0.16
627.313	0.15
627.648	0.16
627.983	0.16
628.318	0.15
628.652	0.15
628.987	0.15
629.321	0.15
629.656	0.15
629.99	0.15
630.325	0.16
630.659	0.15
630.993	0.15
631.327	0.16
631.662	0.15
631.996	0.15
632.33	0.15
632.664	0.16
632.998	0.15
633.332	0.15
633.666	0.15
633.999	0.15
634.333	0.15
634.667	0.15
635.001	0.15
635.334	0.15
635.668	0.15
636.001	0.15
636.335	0.15
636.668	0.14
637.001	0.14
637.335	0.15
637.668	0.15
638.001	0.14
638.334	0.14
638.668	0.14
639.001	0.14
639.334	0.13
639.667	0.14
639.999	0.13
640.332	0.15
640.665	0.13
640.998	0.14
641.331	0.14
641.663	0.13
641.996	0.13
642.328	0.13
642.661	0.13
642.993	0.14
643.326	0.14
643.658	0.13
643.99	0.14
644.323	0.13
644.655	0.13
644.987	0.13
645.319	0.14
645.651	0.14
645.983	0.14
646.315	0.13
646.647	0.14
646.979	0.15
647.31	0.14
647.642	0.14
647.974	0.14
648.305	0.14
648.637	0.13
648.968	0.14
649.3	0.14
649.631	0.14
649.963	0.14
650.294	0.15
650.625	0.15
650.957	0.15
651.288	0.15
651.619	0.15
651.95	0.15
652.281	0.15
652.612	0.14
652.943	0.14
653.274	0.15
653.604	0.14
653.935	0.14
654.266	0.14
654.596	0.15
654.927	0.14
655.258	0.14
655.588	0.14
655.918	0.15
656.249	0.13
656.579	0.14
656.909	0.14
657.24	0.13
657.57	0.15
657.9	0.14
658.23	0.14
658.56	0.15
658.89	0.15
659.22	0.14
659.55	0.14
659.88	0.15
660.209	0.15
660.539	0.15
660.869	0.15
661.198	0.15
661.528	0.15
661.857	0.14
662.187	0.15
662.516	0.15
662.846	0.14
663.175	0.14
663.504	0.14
663.833	0.13
664.163	0.14
664.492	0.13
664.821	0.14
665.15	0.14
665.479	0.14
665.807	0.13
666.136	0.13
666.465	0.14
666.794	0.13
667.122	0.14
667.451	0.13
667.78	0.14
668.108	0.13
668.437	0.13
668.765	0.13
669.093	0.13
669.422	0.13
669.75	0.13
670.078	0.13
670.406	0.14
670.734	0.14
671.062	0.13
671.39	0.13
671.718	0.14
672.046	0.13
672.374	0.13
672.702	0.13
673.029	0.13
673.357	0.14
673.685	0.14
674.012	0.13
674.34	0.13
674.667	0.14
674.995	0.13
675.322	0.13
675.649	0.12
675.977	0.13
676.304	0.13
676.631	0.13
676.958	0.13
677.285	0.12
677.612	0.12
677.939	0.12
678.266	0.13
678.593	0.13
678.92	0.13
679.246	0.12
679.573	0.12
679.9	0.12
680.226	0.12
680.553	0.12
680.879	0.11
681.206	0.12
681.532	0.11
681.858	0.12
682.184	0.11
682.511	0.11
682.837	0.11
683.163	0.12
683.489	0.12
683.815	0.11
684.141	0.11
684.467	0.11
684.793	0.12
685.118	0.11
685.444	0.12
685.77	0.12
686.095	0.11
686.421	0.12
686.746	0.12
687.072	0.13
687.397	0.12
687.723	0.12
688.048	0.12
688.373	0.11
688.698	0.12
689.023	0.12
689.349	0.12
689.674	0.12
689.999	0.11
690.323	0.11
690.648	0.11
690.973	0.1
691.298	0.11
691.623	0.11
691.947	0.11
692.272	0.11
692.596	0.11
692.921	0.11
693.245	0.11
693.57	0.11
693.894	0.11
694.218	0.1
694.543	0.11
694.867	0.1
695.191	0.1
695.515	0.11
695.839	0.1
696.163	0.1
696.487	0.11
696.811	0.1
697.135	0.1
697.458	0.11
697.782	0.1
698.106	0.1
698.429	0.11
698.753	0.1
699.076	0.11
699.4	0.1
699.723	0.1
700.046	0.1
700.37	0.1
700.693	0.11
701.016	0.1
701.339	0.11
701.662	0.11
701.985	0.11
702.308	0.1
702.631	0.1
702.954	0.11
703.277	0.1
703.599	0.1
703.922	0.1
704.245	0.1
704.567	0.09
704.89	0.11
705.212	0.1
705.535	0.09
705.857	0.09
706.179	0.09
706.502	0.09
706.824	0.09
707.146	0.09
707.468	0.09
707.79	0.08
708.112	0.1
708.434	0.1
708.756	0.1
709.078	0.09
709.399	0.09
709.721	0.09
710.043	0.1
710.364	0.09
710.686	0.1
711.007	0.1
711.329	0.1
711.65	0.09
711.972	0.09
712.293	0.1
712.614	0.1
712.935	0.1
713.256	0.09
713.577	0.11
713.898	0.1
714.219	0.09
714.54	0.09
714.861	0.09
715.182	0.09
715.503	0.08
715.823	0.09
716.144	0.09
716.464	0.08
716.785	0.08
717.105	0.09
717.426	0.08
717.746	0.08
718.066	0.07
718.387	0.08
718.707	0.08
719.027	0.08
719.347	0.07
719.667	0.08
719.987	0.07
720.307	0.07
720.627	0.08
720.947	0.08
721.266	0.07
721.586	0.07
721.906	0.07
722.225	0.07
722.545	0.07
722.864	0.06
723.184	0.07
723.503	0.07
723.823	0.07
