Data from 12-12-AQDScycling_Absorbance__264__00264.txt Node

Date: Tue Dec 12 12:05:01 EST 2023
User: kyuminlee
Spectrometer: FLMS00943
Trigger mode: 0
Integration Time (sec): 1.000000E-1
Scans to average: 1
Electric dark correction enabled: true
Nonlinearity correction enabled: false
Boxcar width: 0
XAxis mode: Wavelengths
Number of Pixels in Spectrum: 2048
>>>>>Begin Spectral Data<<<<<
179.651	-0.11
180.037	-0.11
180.424	-0.11
180.81	-0.4
181.197	0.13
181.583	-0
181.97	-0.08
182.356	-0
182.743	-0
183.129	0
183.515	0.46
183.901	-1.74
184.288	-0
184.674	0.46
185.06	-0.78
185.446	-0
185.832	-0
186.218	0.56
186.604	-0.48
186.99	-0
187.376	-0
187.762	-0
188.148	0.54
188.534	0.01
188.92	0.18
189.305	0.3
189.691	0.08
190.077	0.17
190.463	0.07
190.848	0.12
191.234	-0.02
191.619	0.07
192.005	0.03
192.391	0.05
192.776	0.18
193.161	0.17
193.547	0.07
193.932	0.03
194.318	0.01
194.703	0.2
195.088	0.3
195.473	0.27
195.859	0.23
196.244	0.26
196.629	0.05
197.014	0.14
197.399	0.34
197.784	0.16
198.169	0.03
198.554	0.22
198.939	0.11
199.324	0.17
199.709	0.04
200.094	0.08
200.478	0.07
200.863	0.12
201.248	0.18
201.633	0.15
202.017	0.13
202.402	0.21
202.787	0.12
203.171	0.03
203.556	0.3
203.94	0.1
204.325	0.24
204.709	0.26
205.093	0.23
205.478	0.15
205.862	0.03
206.246	0.29
206.631	0.13
207.015	0.09
207.399	0.17
207.783	0.2
208.167	0.29
208.551	0.23
208.935	0.25
209.319	0.18
209.703	0.22
210.087	0.37
210.471	0.07
210.855	0.14
211.239	0.25
211.623	0.29
212.007	0.21
212.39	0.23
212.774	0.18
213.158	0.06
213.541	0.21
213.925	0.26
214.309	0.4
214.692	0.35
215.076	0.33
215.459	0.3
215.842	0.14
216.226	0.26
216.609	0.22
216.993	0.17
217.376	0.53
217.759	0.3
218.142	0.19
218.525	0.51
218.909	0.38
219.292	0.49
219.675	0.5
220.058	0.45
220.441	0.59
220.824	0.71
221.207	0.68
221.59	0.46
221.973	0.53
222.355	0.58
222.738	0.66
223.121	0.55
223.504	0.63
223.886	0.7
224.269	0.66
224.652	0.7
225.034	0.74
225.417	0.63
225.799	0.74
226.182	0.96
226.564	0.9
226.947	0.77
227.329	0.76
227.711	0.77
228.094	0.77
228.476	0.95
228.858	0.85
229.24	0.82
229.623	0.91
230.005	0.96
230.387	0.74
230.769	0.83
231.151	0.91
231.533	0.96
231.915	0.93
232.297	0.98
232.679	0.96
233.061	1.05
233.442	1.05
233.824	1.07
234.206	1.05
234.588	0.97
234.969	1.17
235.351	0.97
235.733	1.18
236.114	1.21
236.496	1.09
236.877	1.16
237.259	1.1
237.64	0.96
238.022	1.13
238.403	0.98
238.784	1.02
239.165	0.93
239.547	1.08
239.928	1.02
240.309	1.01
240.69	1.28
241.071	1.09
241.452	1.15
241.834	1.11
242.215	1.12
242.595	1.1
242.976	1.03
243.357	1.14
243.738	1.08
244.119	1.25
244.5	1.06
244.881	1.33
245.261	1.21
245.642	1.15
246.023	1.14
246.403	1.18
246.784	1.24
247.164	1.36
247.545	1.27
247.925	1.38
248.306	1.21
248.686	1.36
249.067	1.26
249.447	1.43
249.827	1.4
250.207	1.43
250.588	1.25
250.968	1.52
251.348	1.36
251.728	1.34
252.108	1.37
252.488	1.42
252.868	1.29
253.248	1.34
253.628	1.36
254.008	1.57
254.388	1.24
254.768	1.35
255.147	1.38
255.527	1.44
255.907	1.4
256.287	1.34
256.666	1.25
257.046	1.57
257.425	1.69
257.805	1.36
258.184	1.34
258.564	1.36
258.943	1.29
259.323	1.5
259.702	1.57
260.081	1.42
260.461	1.49
260.84	1.43
261.219	1.73
261.598	1.51
261.977	1.45
262.356	1.68
262.736	1.47
263.115	1.53
263.494	1.47
263.873	1.39
264.251	1.37
264.63	1.58
265.009	1.31
265.388	1.48
265.767	1.46
266.145	1.46
266.524	1.47
266.903	1.45
267.281	1.37
267.66	1.47
268.039	1.59
268.417	1.54
268.796	1.42
269.174	1.51
269.552	1.32
269.931	1.43
270.309	1.4
270.687	1.6
271.066	1.65
271.444	1.41
271.822	1.62
272.2	1.43
272.578	1.38
272.956	1.71
273.334	1.48
273.712	1.62
274.09	1.44
274.468	1.33
274.846	1.3
275.224	1.34
275.602	1.4
275.98	1.59
276.357	1.47
276.735	1.69
277.113	1.39
277.49	1.29
277.868	1.26
278.246	1.38
278.623	1.3
279.001	1.24
279.378	1.44
279.756	1.42
280.133	1.9
280.51	1.48
280.888	1.43
281.265	1.41
281.642	1.47
282.019	1.54
282.396	1.65
282.773	1.37
283.151	1.62
283.528	1.49
283.905	1.47
284.282	1.59
284.659	1.59
285.035	1.37
285.412	1.38
285.789	1.46
286.166	1.55
286.543	1.42
286.919	1.43
287.296	1.47
287.673	1.83
288.049	1.51
288.426	1.81
288.802	1.48
289.179	1.44
289.555	1.6
289.932	1.49
290.308	1.33
290.684	1.41
291.061	1.38
291.437	1.53
291.813	1.37
292.189	1.42
292.565	1.3
292.942	1.4
293.318	1.46
293.694	1.75
294.07	1.29
294.446	1.46
294.822	1.52
295.197	1.41
295.573	1.35
295.949	1.47
296.325	1.64
296.701	1.58
297.076	1.6
297.452	1.49
297.828	1.61
298.203	1.76
298.579	1.46
298.954	1.36
299.33	1.43
299.705	1.4
300.081	1.46
300.456	1.38
300.831	1.42
301.206	1.47
301.582	1.59
301.957	1.39
302.332	1.58
302.707	1.55
303.082	1.43
303.457	1.53
303.832	1.49
304.207	1.45
304.582	1.4
304.957	1.57
305.332	1.55
305.707	1.4
306.082	1.5
306.456	1.58
306.831	1.46
307.206	1.5
307.58	1.45
307.955	1.43
308.33	1.41
308.704	1.39
309.079	1.51
309.453	1.7
309.828	1.49
310.202	1.35
310.576	1.49
310.951	1.51
311.325	1.53
311.699	1.54
312.073	1.47
312.447	1.54
312.821	1.4
313.196	1.41
313.57	1.45
313.944	1.36
314.317	1.43
314.691	1.53
315.065	1.46
315.439	1.49
315.813	1.47
316.187	1.43
316.56	1.54
316.934	1.42
317.308	1.45
317.681	1.49
318.055	1.47
318.428	1.55
318.802	1.55
319.175	1.54
319.549	1.49
319.922	1.32
320.295	1.42
320.669	1.76
321.042	1.46
321.415	1.72
321.788	1.46
322.162	1.38
322.535	1.52
322.908	1.47
323.281	1.43
323.654	1.57
324.027	1.47
324.4	1.62
324.773	1.43
325.145	1.59
325.518	1.53
325.891	1.37
326.264	1.6
326.636	1.41
327.009	1.39
327.382	1.52
327.754	1.51
328.127	1.4
328.499	1.55
328.872	1.6
329.244	1.51
329.616	1.29
329.989	1.54
330.361	1.64
330.733	1.47
331.106	1.35
331.478	1.52
331.85	1.48
332.222	1.38
332.594	1.53
332.966	1.44
333.338	1.68
333.71	1.53
334.082	1.67
334.454	1.48
334.826	1.58
335.197	1.47
335.569	1.51
335.941	1.5
336.312	1.49
336.684	1.53
337.056	1.39
337.427	1.73
337.799	1.54
338.17	1.48
338.542	1.54
338.913	1.63
339.284	1.58
339.656	1.45
340.027	1.55
340.398	1.49
340.769	1.62
341.141	1.72
341.512	1.56
341.883	1.6
342.254	1.62
342.625	1.49
342.996	1.47
343.367	1.63
343.738	1.5
344.108	1.35
344.479	1.89
344.85	1.43
345.221	1.52
345.591	1.39
345.962	1.47
346.333	1.49
346.703	1.35
347.074	1.38
347.444	1.4
347.815	1.42
348.185	1.41
348.556	1.49
348.926	1.31
349.296	1.47
349.666	1.38
350.037	1.37
350.407	1.28
350.777	1.37
351.147	1.4
351.517	1.39
351.887	1.33
352.257	1.38
352.627	1.32
352.997	1.27
353.367	1.53
353.737	1.43
354.106	1.31
354.476	1.43
354.846	1.32
355.216	1.34
355.585	1.41
355.955	1.36
356.324	1.49
356.694	1.35
357.063	1.28
357.433	1.22
357.802	1.32
358.171	1.37
358.541	1.33
358.91	1.35
359.279	1.27
359.648	1.28
360.017	1.31
360.387	1.32
360.756	1.19
361.125	1.29
361.494	1.32
361.863	1.25
362.231	1.19
362.6	1.31
362.969	1.26
363.338	1.18
363.707	1.33
364.075	1.29
364.444	1.14
364.813	1.16
365.181	1.21
365.55	1.24
365.918	1.22
366.287	1.34
366.655	1.26
367.024	1.26
367.392	1.26
367.76	1.21
368.128	1.11
368.497	1.21
368.865	1.21
369.233	1.2
369.601	1.24
369.969	1.26
370.337	1.14
370.705	1.21
371.073	1.21
371.441	1.19
371.809	1.22
372.177	1.17
372.544	1.27
372.912	1.2
373.28	1.16
373.647	1.24
374.015	1.24
374.383	1.33
374.75	1.27
375.118	1.23
375.485	1.25
375.853	1.29
376.22	1.23
376.587	1.28
376.955	1.29
377.322	1.23
377.689	1.22
378.056	1.22
378.423	1.2
378.79	1.23
379.157	1.26
379.524	1.3
379.891	1.19
380.258	1.27
380.625	1.21
380.992	1.25
381.359	1.31
381.726	1.31
382.092	1.26
382.459	1.29
382.826	1.3
383.192	1.31
383.559	1.31
383.925	1.29
384.292	1.24
384.658	1.37
385.025	1.29
385.391	1.46
385.757	1.41
386.123	1.43
386.49	1.35
386.856	1.35
387.222	1.38
387.588	1.39
387.954	1.52
388.32	1.52
388.686	1.34
389.052	1.39
389.418	1.46
389.784	1.34
390.15	1.39
390.515	1.3
390.881	1.5
391.247	1.39
391.613	1.46
391.978	1.28
392.344	1.49
392.709	1.4
393.075	1.42
393.44	1.4
393.806	1.37
394.171	1.3
394.536	1.35
394.902	1.38
395.267	1.32
395.632	1.27
395.997	1.3
396.362	1.31
396.727	1.36
397.092	1.35
397.457	1.33
397.822	1.32
398.187	1.4
398.552	1.31
398.917	1.42
399.282	1.3
399.646	1.3
400.011	1.29
400.376	1.22
400.74	1.31
401.105	1.27
401.47	1.33
401.834	1.24
402.199	1.23
402.563	1.17
402.927	1.21
403.292	1.25
403.656	1.25
404.02	1.25
404.384	1.32
404.749	1.22
405.113	1.29
405.477	1.23
405.841	1.18
406.205	1.21
406.569	1.19
406.933	1.18
407.296	1.2
407.66	1.2
408.024	1.18
408.388	1.21
408.752	1.14
409.115	1.19
409.479	1.16
409.842	1.13
410.206	1.09
410.569	1.1
410.933	1.1
411.296	1.03
411.66	1.12
412.023	1.08
412.386	1.09
412.749	1.04
413.113	1.04
413.476	1.01
413.839	1.09
414.202	1.03
414.565	1.03
414.928	1.03
415.291	0.97
415.654	1.03
416.017	1.06
416.38	1
416.742	0.96
417.105	1.01
417.468	0.96
417.83	0.99
418.193	1.08
418.556	0.99
418.918	0.99
419.281	0.98
419.643	0.97
420.005	0.99
420.368	0.98
420.73	0.97
421.092	0.96
421.455	1.04
421.817	0.92
422.179	0.97
422.541	0.96
422.903	1.02
423.265	0.98
423.627	0.96
423.989	0.96
424.351	0.94
424.713	0.95
425.075	0.95
425.436	0.94
425.798	0.94
426.16	0.97
426.521	0.9
426.883	0.95
427.245	0.96
427.606	0.94
427.967	0.89
428.329	0.92
428.69	0.96
429.052	0.88
429.413	0.97
429.774	0.91
430.135	0.93
430.497	0.91
430.858	0.92
431.219	0.9
431.58	0.86
431.941	0.9
432.302	0.89
432.663	0.88
433.024	0.9
433.384	0.89
433.745	0.89
434.106	0.88
434.467	0.89
434.827	0.89
435.188	0.85
435.548	0.91
435.909	0.88
436.269	0.86
436.63	0.82
436.99	0.86
437.351	0.82
437.711	0.87
438.071	0.85
438.431	0.85
438.792	0.83
439.152	0.8
439.512	0.81
439.872	0.82
440.232	0.85
440.592	0.83
440.952	0.81
441.312	0.79
441.671	0.78
442.031	0.8
442.391	0.8
442.751	0.83
443.11	0.78
443.47	0.78
443.83	0.74
444.189	0.76
444.549	0.77
444.908	0.78
445.267	0.74
445.627	0.76
445.986	0.75
446.345	0.73
446.705	0.73
447.064	0.75
447.423	0.74
447.782	0.71
448.141	0.72
448.5	0.69
448.859	0.72
449.218	0.72
449.577	0.71
449.936	0.7
450.295	0.7
450.653	0.68
451.012	0.69
451.371	0.69
451.729	0.68
452.088	0.7
452.447	0.69
452.805	0.7
453.163	0.66
453.522	0.66
453.88	0.67
454.239	0.65
454.597	0.65
454.955	0.65
455.313	0.64
455.671	0.65
456.029	0.62
456.388	0.62
456.746	0.63
457.104	0.61
457.461	0.6
457.819	0.6
458.177	0.6
458.535	0.58
458.893	0.57
459.25	0.58
459.608	0.57
459.966	0.56
460.323	0.55
460.681	0.54
461.038	0.55
461.396	0.53
461.753	0.53
462.111	0.52
462.468	0.51
462.825	0.5
463.182	0.49
463.54	0.5
463.897	0.49
464.254	0.49
464.611	0.5
464.968	0.47
465.325	0.49
465.682	0.47
466.039	0.47
466.395	0.45
466.752	0.45
467.109	0.45
467.466	0.45
467.822	0.44
468.179	0.43
468.535	0.42
468.892	0.43
469.248	0.43
469.605	0.41
469.961	0.41
470.318	0.42
470.674	0.41
471.03	0.4
471.386	0.4
471.743	0.39
472.099	0.38
472.455	0.39
472.811	0.38
473.167	0.37
473.523	0.36
473.879	0.35
474.235	0.35
474.59	0.34
474.946	0.34
475.302	0.34
475.657	0.33
476.013	0.33
476.369	0.33
476.724	0.34
477.08	0.32
477.435	0.31
477.791	0.31
478.146	0.32
478.501	0.31
478.857	0.3
479.212	0.3
479.567	0.3
479.922	0.29
480.277	0.29
480.632	0.28
480.987	0.29
481.342	0.28
481.697	0.27
482.052	0.27
482.407	0.26
482.762	0.26
483.116	0.26
483.471	0.25
483.826	0.26
484.18	0.25
484.535	0.25
484.89	0.24
485.244	0.24
485.598	0.24
485.953	0.24
486.307	0.24
486.661	0.23
487.016	0.23
487.37	0.23
487.724	0.23
488.078	0.23
488.432	0.23
488.786	0.22
489.14	0.22
489.494	0.22
489.848	0.21
490.202	0.21
490.556	0.22
490.91	0.21
491.263	0.21
491.617	0.21
491.971	0.21
492.324	0.2
492.678	0.2
493.031	0.2
493.385	0.2
493.738	0.19
494.091	0.19
494.445	0.2
494.798	0.2
495.151	0.19
495.504	0.19
495.857	0.19
496.21	0.19
496.564	0.18
496.916	0.19
497.269	0.18
497.622	0.19
497.975	0.18
498.328	0.19
498.681	0.18
499.033	0.18
499.386	0.18
499.739	0.18
500.091	0.17
500.444	0.18
500.796	0.18
501.149	0.17
501.501	0.17
501.854	0.18
502.206	0.17
502.558	0.16
502.91	0.17
503.263	0.17
503.615	0.16
503.967	0.16
504.319	0.17
504.671	0.16
505.023	0.16
505.375	0.16
505.726	0.16
506.078	0.16
506.43	0.16
506.782	0.16
507.133	0.16
507.485	0.16
507.837	0.16
508.188	0.17
508.54	0.16
508.891	0.16
509.243	0.16
509.594	0.16
509.945	0.16
510.296	0.16
510.648	0.16
510.999	0.15
511.35	0.15
511.701	0.16
512.052	0.16
512.403	0.16
512.754	0.15
513.105	0.16
513.456	0.16
513.807	0.15
514.157	0.16
514.508	0.15
514.859	0.15
515.209	0.15
515.56	0.15
515.91	0.15
516.261	0.15
516.611	0.14
516.962	0.15
517.312	0.15
517.662	0.15
518.013	0.15
518.363	0.16
518.713	0.15
519.063	0.16
519.413	0.15
519.763	0.15
520.113	0.14
520.463	0.15
520.813	0.15
521.163	0.16
521.512	0.16
521.862	0.15
522.212	0.15
522.562	0.16
522.911	0.16
523.261	0.15
523.61	0.15
523.96	0.15
524.309	0.15
524.658	0.15
525.008	0.15
525.357	0.15
525.706	0.16
526.056	0.15
526.405	0.16
526.754	0.15
527.103	0.15
527.452	0.15
527.801	0.15
528.15	0.15
528.499	0.15
528.847	0.15
529.196	0.16
529.545	0.16
529.893	0.16
530.242	0.16
530.591	0.17
530.939	0.17
531.288	0.16
531.636	0.16
531.985	0.16
532.333	0.16
532.681	0.16
533.029	0.17
533.378	0.16
533.726	0.16
534.074	0.16
534.422	0.16
534.77	0.17
535.118	0.16
535.466	0.16
535.814	0.15
536.162	0.16
536.509	0.16
536.857	0.16
537.205	0.17
537.552	0.17
537.9	0.16
538.248	0.16
538.595	0.17
538.943	0.16
539.29	0.16
539.637	0.16
539.985	0.16
540.332	0.16
540.679	0.16
541.026	0.15
541.373	0.17
541.721	0.15
542.068	0.15
542.415	0.16
542.762	0.15
543.108	0.15
543.455	0.15
543.802	0.15
544.149	0.15
544.496	0.15
544.842	0.15
545.189	0.14
545.535	0.15
545.882	0.16
546.228	0.15
546.575	0.14
546.921	0.16
547.267	0.14
547.614	0.14
547.96	0.15
548.306	0.15
548.652	0.15
548.998	0.16
549.344	0.16
549.69	0.15
550.036	0.15
550.382	0.15
550.728	0.15
551.074	0.16
551.42	0.15
551.765	0.16
552.111	0.16
552.457	0.17
552.802	0.16
553.148	0.16
553.493	0.16
553.839	0.17
554.184	0.16
554.529	0.16
554.875	0.17
555.22	0.16
555.565	0.17
555.91	0.17
556.255	0.17
556.6	0.16
556.945	0.16
557.29	0.16
557.635	0.17
557.98	0.16
558.325	0.16
558.67	0.16
559.014	0.17
559.359	0.17
559.704	0.16
560.048	0.16
560.393	0.16
560.737	0.16
561.082	0.16
561.426	0.15
561.77	0.15
562.115	0.15
562.459	0.16
562.803	0.15
563.147	0.15
563.491	0.16
563.835	0.16
564.179	0.15
564.523	0.16
564.867	0.16
565.211	0.15
565.555	0.16
565.899	0.17
566.242	0.16
566.586	0.15
566.93	0.16
567.273	0.16
567.617	0.16
567.96	0.16
568.304	0.16
568.647	0.16
568.99	0.16
569.334	0.17
569.677	0.16
570.02	0.17
570.363	0.17
570.706	0.15
571.049	0.16
571.392	0.16
571.735	0.16
572.078	0.16
572.421	0.16
572.764	0.16
573.106	0.15
573.449	0.16
573.792	0.16
574.134	0.16
574.477	0.17
574.819	0.15
575.162	0.16
575.504	0.16
575.847	0.16
576.189	0.16
576.531	0.16
576.873	0.16
577.215	0.16
577.558	0.17
577.9	0.16
578.242	0.16
578.584	0.16
578.926	0.16
579.267	0.16
579.609	0.16
579.951	0.17
580.293	0.16
580.634	0.16
580.976	0.17
581.318	0.15
581.659	0.15
582.001	0.16
582.342	0.15
582.683	0.17
583.025	0.16
583.366	0.16
583.707	0.15
584.049	0.16
584.39	0.15
584.731	0.15
585.072	0.15
585.413	0.16
585.754	0.16
586.095	0.16
586.435	0.16
586.776	0.16
587.117	0.16
587.458	0.15
587.798	0.17
588.139	0.16
588.48	0.15
588.82	0.16
589.161	0.17
589.501	0.15
589.841	0.16
590.182	0.15
590.522	0.16
590.862	0.17
591.202	0.16
591.542	0.15
591.882	0.15
592.222	0.16
592.562	0.16
592.902	0.15
593.242	0.15
593.582	0.16
593.922	0.15
594.261	0.16
594.601	0.16
594.941	0.15
595.28	0.16
595.62	0.16
595.959	0.16
596.299	0.16
596.638	0.15
596.977	0.16
597.317	0.17
597.656	0.16
597.995	0.15
598.334	0.16
598.673	0.15
599.012	0.15
599.351	0.16
599.69	0.15
600.029	0.15
600.368	0.16
600.707	0.15
601.046	0.15
601.384	0.16
601.723	0.16
602.061	0.15
602.4	0.16
602.738	0.15
603.077	0.16
603.415	0.15
603.754	0.16
604.092	0.15
604.43	0.15
604.768	0.16
605.107	0.16
605.445	0.16
605.783	0.15
606.121	0.15
606.459	0.16
606.796	0.16
607.134	0.14
607.472	0.15
607.81	0.16
608.148	0.14
608.485	0.16
608.823	0.15
609.16	0.15
609.498	0.15
609.835	0.15
610.173	0.15
610.51	0.15
610.847	0.16
611.185	0.15
611.522	0.16
611.859	0.16
612.196	0.16
612.533	0.16
612.87	0.16
613.207	0.16
613.544	0.16
613.881	0.17
614.217	0.16
614.554	0.16
614.891	0.16
615.228	0.16
615.564	0.17
615.901	0.16
616.237	0.15
616.574	0.16
616.91	0.17
617.246	0.16
617.583	0.16
617.919	0.16
618.255	0.17
618.591	0.16
618.927	0.16
619.263	0.17
619.599	0.16
619.935	0.17
620.271	0.16
620.607	0.17
620.943	0.16
621.279	0.16
621.614	0.16
621.95	0.16
622.286	0.15
622.621	0.15
622.957	0.15
623.292	0.15
623.627	0.15
623.963	0.15
624.298	0.15
624.633	0.15
624.968	0.15
625.304	0.14
625.639	0.15
625.974	0.15
626.309	0.15
626.644	0.14
626.979	0.15
627.313	0.14
627.648	0.15
627.983	0.15
628.318	0.14
628.652	0.14
628.987	0.15
629.321	0.15
629.656	0.14
629.99	0.14
630.325	0.15
630.659	0.14
630.993	0.15
631.327	0.14
631.662	0.14
631.996	0.14
632.33	0.14
632.664	0.15
632.998	0.14
633.332	0.14
633.666	0.14
633.999	0.14
634.333	0.14
634.667	0.14
635.001	0.13
635.334	0.13
635.668	0.14
636.001	0.14
636.335	0.14
636.668	0.14
637.001	0.13
637.335	0.14
637.668	0.13
638.001	0.13
638.334	0.13
638.668	0.13
639.001	0.14
639.334	0.13
639.667	0.12
639.999	0.13
640.332	0.14
640.665	0.12
640.998	0.12
641.331	0.12
641.663	0.13
641.996	0.13
642.328	0.13
642.661	0.13
642.993	0.13
643.326	0.13
643.658	0.12
643.99	0.12
644.323	0.12
644.655	0.13
644.987	0.12
645.319	0.12
645.651	0.13
645.983	0.13
646.315	0.12
646.647	0.13
646.979	0.14
647.31	0.14
647.642	0.14
647.974	0.13
648.305	0.14
648.637	0.13
648.968	0.14
649.3	0.14
649.631	0.14
649.963	0.13
650.294	0.14
650.625	0.13
650.957	0.14
651.288	0.13
651.619	0.14
651.95	0.14
652.281	0.14
652.612	0.13
652.943	0.14
653.274	0.14
653.604	0.14
653.935	0.13
654.266	0.14
654.596	0.14
654.927	0.13
655.258	0.13
655.588	0.13
655.918	0.14
656.249	0.11
656.579	0.13
656.909	0.13
657.24	0.13
657.57	0.14
657.9	0.14
658.23	0.13
658.56	0.14
658.89	0.14
659.22	0.13
659.55	0.13
659.88	0.14
660.209	0.13
660.539	0.14
660.869	0.13
661.198	0.14
661.528	0.14
661.857	0.14
662.187	0.14
662.516	0.14
662.846	0.13
663.175	0.14
663.504	0.13
663.833	0.13
664.163	0.13
664.492	0.12
664.821	0.13
665.15	0.13
665.479	0.13
665.807	0.12
666.136	0.13
666.465	0.12
666.794	0.13
667.122	0.12
667.451	0.11
667.78	0.12
668.108	0.13
668.437	0.12
668.765	0.12
669.093	0.13
669.422	0.13
669.75	0.13
670.078	0.12
670.406	0.13
670.734	0.12
671.062	0.13
671.39	0.12
671.718	0.13
672.046	0.13
672.374	0.12
672.702	0.12
673.029	0.12
673.357	0.13
673.685	0.13
674.012	0.12
674.34	0.12
674.667	0.13
674.995	0.13
675.322	0.13
675.649	0.12
675.977	0.12
676.304	0.12
676.631	0.12
676.958	0.12
677.285	0.12
677.612	0.11
677.939	0.12
678.266	0.13
678.593	0.12
678.92	0.12
679.246	0.11
679.573	0.12
679.9	0.11
680.226	0.12
680.553	0.11
680.879	0.11
681.206	0.12
681.532	0.11
681.858	0.11
682.184	0.1
682.511	0.11
682.837	0.11
683.163	0.11
683.489	0.11
683.815	0.1
684.141	0.11
684.467	0.11
684.793	0.11
685.118	0.1
685.444	0.11
685.77	0.11
686.095	0.11
686.421	0.11
686.746	0.11
687.072	0.11
687.397	0.11
687.723	0.12
688.048	0.12
688.373	0.11
688.698	0.12
689.023	0.11
689.349	0.12
689.674	0.11
689.999	0.11
690.323	0.11
690.648	0.11
690.973	0.1
691.298	0.11
691.623	0.1
691.947	0.1
692.272	0.1
692.596	0.1
692.921	0.11
693.245	0.1
693.57	0.1
693.894	0.11
694.218	0.1
694.543	0.1
694.867	0.1
695.191	0.09
695.515	0.1
695.839	0.09
696.163	0.1
696.487	0.1
696.811	0.1
697.135	0.1
697.458	0.1
697.782	0.1
698.106	0.1
698.429	0.1
698.753	0.09
699.076	0.1
699.4	0.1
699.723	0.09
700.046	0.09
700.37	0.1
700.693	0.09
701.016	0.1
701.339	0.1
701.662	0.11
701.985	0.1
702.308	0.1
702.631	0.1
702.954	0.1
703.277	0.1
703.599	0.1
703.922	0.09
704.245	0.09
704.567	0.09
704.89	0.09
705.212	0.09
705.535	0.09
705.857	0.08
706.179	0.08
706.502	0.09
706.824	0.08
707.146	0.08
707.468	0.09
707.79	0.09
708.112	0.09
708.434	0.09
708.756	0.09
709.078	0.09
709.399	0.09
709.721	0.08
710.043	0.09
710.364	0.09
710.686	0.1
711.007	0.09
711.329	0.09
711.65	0.09
711.972	0.1
712.293	0.1
712.614	0.1
712.935	0.09
713.256	0.1
713.577	0.09
713.898	0.09
714.219	0.09
714.54	0.08
714.861	0.08
715.182	0.08
715.503	0.08
715.823	0.08
716.144	0.07
716.464	0.08
716.785	0.08
717.105	0.08
717.426	0.09
717.746	0.08
718.066	0.07
718.387	0.07
718.707	0.07
719.027	0.08
719.347	0.07
719.667	0.07
719.987	0.06
720.307	0.07
720.627	0.07
720.947	0.07
721.266	0.08
721.586	0.06
721.906	0.07
722.225	0.06
722.545	0.06
722.864	0.06
723.184	0.07
723.503	0.07
723.823	0.08
