Data from 12-12-AQDScycling_Absorbance__195__00195.txt Node

Date: Tue Dec 12 11:45:29 EST 2023
User: kyuminlee
Spectrometer: FLMS00943
Trigger mode: 0
Integration Time (sec): 1.000000E-1
Scans to average: 1
Electric dark correction enabled: true
Nonlinearity correction enabled: false
Boxcar width: 0
XAxis mode: Wavelengths
Number of Pixels in Spectrum: 2048
>>>>>Begin Spectral Data<<<<<
179.651	0.72
180.037	0.72
180.424	0.72
180.81	-0
181.197	0.44
181.583	-0
181.97	0.31
182.356	-0
182.743	-0.74
183.129	0.21
183.515	0.14
183.901	-2.43
184.288	0.19
184.674	0.92
185.06	-1.03
185.446	-0.01
185.832	-0.99
186.218	0.28
186.604	-0.02
186.99	-0.08
187.376	0.14
187.762	-0.36
188.148	0.12
188.534	-0.04
188.92	0.08
189.305	0.01
189.691	0.19
190.077	0.16
190.463	0.13
190.848	0.12
191.234	0.07
191.619	0.07
192.005	0.18
192.391	0.12
192.776	0.07
193.161	0.06
193.547	0.12
193.932	0.05
194.318	0.06
194.703	0.24
195.088	0.25
195.473	0.11
195.859	0.13
196.244	0.19
196.629	0.16
197.014	0.07
197.399	0.13
197.784	0.24
198.169	0.14
198.554	0.18
198.939	0.2
199.324	0.09
199.709	0.01
200.094	0.04
200.478	0.05
200.863	0.14
201.248	0.14
201.633	0.1
202.017	0.21
202.402	0.17
202.787	0.08
203.171	0.17
203.556	0.15
203.94	0.09
204.325	0.21
204.709	0.2
205.093	0.12
205.478	0.13
205.862	0.17
206.246	0.13
206.631	0.13
207.015	0.06
207.399	0.01
207.783	0.14
208.167	0.16
208.551	0.19
208.935	0.09
209.319	0.22
209.703	0.2
210.087	0.18
210.471	0.19
210.855	0.11
211.239	0.2
211.623	0.2
212.007	0.18
212.39	0.21
212.774	0.14
213.158	0.05
213.541	0.2
213.925	0.18
214.309	0.24
214.692	0.19
215.076	0.14
215.459	0.19
215.842	0.23
216.226	0.28
216.609	0.32
216.993	0.14
217.376	0.42
217.759	0.09
218.142	0.24
218.525	0.5
218.909	0.25
219.292	0.32
219.675	0.77
220.058	0.35
220.441	0.49
220.824	0.51
221.207	0.57
221.59	0.52
221.973	0.47
222.355	0.64
222.738	0.62
223.121	0.52
223.504	0.66
223.886	0.66
224.269	0.75
224.652	0.72
225.034	0.81
225.417	0.76
225.799	0.89
226.182	0.91
226.564	0.91
226.947	0.87
227.329	0.77
227.711	0.84
228.094	0.78
228.476	0.91
228.858	0.81
229.24	0.81
229.623	0.92
230.005	0.79
230.387	0.89
230.769	0.85
231.151	1.08
231.533	0.96
231.915	0.86
232.297	1
232.679	0.92
233.061	0.95
233.442	1.03
233.824	0.96
234.206	1.1
234.588	0.95
234.969	1.04
235.351	1.01
235.733	1.04
236.114	1.24
236.496	1.12
236.877	1.1
237.259	1.05
237.64	0.91
238.022	1.13
238.403	0.91
238.784	1.09
239.165	0.94
239.547	0.98
239.928	1.04
240.309	1.01
240.69	1.02
241.071	1.05
241.452	1.13
241.834	1.02
242.215	1.07
242.595	1.03
242.976	1.09
243.357	1.14
243.738	1.09
244.119	1.37
244.5	1.05
244.881	1.17
245.261	1.12
245.642	1.15
246.023	1.15
246.403	1.23
246.784	1.18
247.164	1.32
247.545	1.31
247.925	1.25
248.306	1.29
248.686	1.52
249.067	1.2
249.447	1.27
249.827	1.32
250.207	1.35
250.588	1.3
250.968	1.35
251.348	1.2
251.728	1.51
252.108	1.33
252.488	1.36
252.868	1.27
253.248	1.22
253.628	1.38
254.008	1.37
254.388	1.4
254.768	1.35
255.147	1.41
255.527	1.4
255.907	1.2
256.287	1.31
256.666	1.4
257.046	1.44
257.425	1.39
257.805	1.22
258.184	1.24
258.564	1.34
258.943	1.35
259.323	1.36
259.702	1.5
260.081	1.43
260.461	1.42
260.84	1.45
261.219	1.51
261.598	1.68
261.977	1.42
262.356	1.49
262.736	1.5
263.115	1.56
263.494	1.3
263.873	1.39
264.251	1.36
264.63	1.6
265.009	1.39
265.388	1.41
265.767	1.36
266.145	1.44
266.524	1.36
266.903	1.4
267.281	1.38
267.66	1.46
268.039	1.56
268.417	1.47
268.796	1.61
269.174	1.38
269.552	1.41
269.931	1.47
270.309	1.37
270.687	1.57
271.066	1.45
271.444	1.23
271.822	1.67
272.2	1.49
272.578	1.39
272.956	1.31
273.334	1.43
273.712	1.46
274.09	1.39
274.468	1.34
274.846	1.26
275.224	1.31
275.602	1.45
275.98	1.6
276.357	1.42
276.735	1.41
277.113	1.39
277.49	1.3
277.868	1.27
278.246	1.35
278.623	1.24
279.001	1.35
279.378	1.37
279.756	1.47
280.133	1.49
280.51	1.37
280.888	1.47
281.265	1.39
281.642	1.48
282.019	1.78
282.396	1.66
282.773	1.44
283.151	1.49
283.528	1.46
283.905	1.36
284.282	1.62
284.659	1.52
285.035	1.39
285.412	1.38
285.789	1.48
286.166	1.54
286.543	1.41
286.919	1.49
287.296	1.39
287.673	1.61
288.049	1.73
288.426	1.55
288.802	1.68
289.179	1.47
289.555	1.68
289.932	1.44
290.308	1.35
290.684	1.4
291.061	1.33
291.437	1.61
291.813	1.29
292.189	1.34
292.565	1.26
292.942	1.39
293.318	1.5
293.694	1.39
294.07	1.34
294.446	1.33
294.822	1.65
295.197	1.48
295.573	1.53
295.949	1.34
296.325	1.47
296.701	1.49
297.076	1.39
297.452	1.54
297.828	1.46
298.203	1.53
298.579	1.33
298.954	1.5
299.33	1.35
299.705	1.48
300.081	1.5
300.456	1.46
300.831	1.44
301.206	1.45
301.582	1.49
301.957	1.43
302.332	1.56
302.707	1.42
303.082	1.4
303.457	1.62
303.832	1.42
304.207	1.32
304.582	1.36
304.957	1.58
305.332	1.53
305.707	1.4
306.082	1.48
306.456	1.5
306.831	1.39
307.206	1.42
307.58	1.48
307.955	1.39
308.33	1.52
308.704	1.61
309.079	1.34
309.453	1.6
309.828	1.51
310.202	1.46
310.576	1.46
310.951	1.43
311.325	1.44
311.699	1.42
312.073	1.42
312.447	1.3
312.821	1.32
313.196	1.6
313.57	1.35
313.944	1.46
314.317	1.32
314.691	1.48
315.065	1.41
315.439	1.54
315.813	1.45
316.187	1.36
316.56	1.59
316.934	1.56
317.308	1.49
317.681	1.52
318.055	1.48
318.428	1.38
318.802	1.37
319.175	1.42
319.549	1.48
319.922	1.32
320.295	1.41
320.669	1.53
321.042	1.57
321.415	1.69
321.788	1.44
322.162	1.41
322.535	1.45
322.908	1.49
323.281	1.51
323.654	1.6
324.027	1.37
324.4	1.55
324.773	1.53
325.145	1.51
325.518	1.41
325.891	1.48
326.264	1.49
326.636	1.38
327.009	1.39
327.382	1.53
327.754	1.46
328.127	1.42
328.499	1.58
328.872	1.43
329.244	1.41
329.616	1.38
329.989	1.42
330.361	1.38
330.733	1.4
331.106	1.45
331.478	1.62
331.85	1.4
332.222	1.4
332.594	1.56
332.966	1.4
333.338	1.63
333.71	1.51
334.082	1.6
334.454	1.41
334.826	1.48
335.197	1.55
335.569	1.46
335.941	1.41
336.312	1.36
336.684	1.44
337.056	1.57
337.427	1.52
337.799	1.56
338.17	1.54
338.542	1.44
338.913	1.48
339.284	1.52
339.656	1.56
340.027	1.55
340.398	1.6
340.769	1.42
341.141	1.6
341.512	1.47
341.883	1.47
342.254	1.47
342.625	1.53
342.996	1.42
343.367	1.52
343.738	1.5
344.108	1.38
344.479	1.42
344.85	1.36
345.221	1.45
345.591	1.37
345.962	1.36
346.333	1.37
346.703	1.42
347.074	1.43
347.444	1.36
347.815	1.55
348.185	1.39
348.556	1.47
348.926	1.3
349.296	1.3
349.666	1.35
350.037	1.23
350.407	1.34
350.777	1.32
351.147	1.4
351.517	1.38
351.887	1.39
352.257	1.34
352.627	1.31
352.997	1.27
353.367	1.35
353.737	1.48
354.106	1.4
354.476	1.24
354.846	1.38
355.216	1.4
355.585	1.3
355.955	1.34
356.324	1.38
356.694	1.32
357.063	1.3
357.433	1.2
357.802	1.29
358.171	1.32
358.541	1.27
358.91	1.34
359.279	1.26
359.648	1.3
360.017	1.39
360.387	1.31
360.756	1.2
361.125	1.25
361.494	1.28
361.863	1.21
362.231	1.27
362.6	1.23
362.969	1.28
363.338	1.16
363.707	1.32
364.075	1.26
364.444	1.15
364.813	1.17
365.181	1.21
365.55	1.14
365.918	1.28
366.287	1.29
366.655	1.23
367.024	1.19
367.392	1.23
367.76	1.19
368.128	1.23
368.497	1.16
368.865	1.18
369.233	1.19
369.601	1.21
369.969	1.14
370.337	1.18
370.705	1.22
371.073	1.24
371.441	1.11
371.809	1.18
372.177	1.22
372.544	1.23
372.912	1.23
373.28	1.26
373.647	1.15
374.015	1.26
374.383	1.31
374.75	1.24
375.118	1.23
375.485	1.21
375.853	1.29
376.22	1.23
376.587	1.19
376.955	1.25
377.322	1.23
377.689	1.2
378.056	1.19
378.423	1.21
378.79	1.27
379.157	1.27
379.524	1.19
379.891	1.22
380.258	1.29
380.625	1.21
380.992	1.28
381.359	1.2
381.726	1.33
382.092	1.31
382.459	1.26
382.826	1.25
383.192	1.27
383.559	1.35
383.925	1.31
384.292	1.23
384.658	1.4
385.025	1.42
385.391	1.33
385.757	1.28
386.123	1.3
386.49	1.27
386.856	1.44
387.222	1.39
387.588	1.3
387.954	1.55
388.32	1.42
388.686	1.49
389.052	1.29
389.418	1.32
389.784	1.38
390.15	1.41
390.515	1.27
390.881	1.45
391.247	1.31
391.613	1.47
391.978	1.34
392.344	1.45
392.709	1.35
393.075	1.33
393.44	1.35
393.806	1.4
394.171	1.33
394.536	1.37
394.902	1.38
395.267	1.34
395.632	1.24
395.997	1.32
396.362	1.32
396.727	1.27
397.092	1.35
397.457	1.42
397.822	1.29
398.187	1.36
398.552	1.28
398.917	1.35
399.282	1.28
399.646	1.22
400.011	1.4
400.376	1.25
400.74	1.24
401.105	1.27
401.47	1.28
401.834	1.24
402.199	1.3
402.563	1.24
402.927	1.24
403.292	1.34
403.656	1.27
404.02	1.28
404.384	1.36
404.749	1.25
405.113	1.23
405.477	1.23
405.841	1.22
406.205	1.2
406.569	1.25
406.933	1.24
407.296	1.21
407.66	1.15
408.024	1.17
408.388	1.22
408.752	1.17
409.115	1.16
409.479	1.19
409.842	1.12
410.206	1.11
410.569	1.07
410.933	1.11
411.296	1.06
411.66	1.15
412.023	1.06
412.386	1.06
412.749	1.06
413.113	1.03
413.476	1.06
413.839	1.09
414.202	1.05
414.565	1.06
414.928	1.07
415.291	0.98
415.654	1.02
416.017	1.05
416.38	0.99
416.742	0.94
417.105	1.01
417.468	0.96
417.83	1.07
418.193	0.99
418.556	1.01
418.918	0.98
419.281	1
419.643	1.03
420.005	1
420.368	1.01
420.73	1.04
421.092	1.02
421.455	1.01
421.817	0.96
422.179	0.98
422.541	0.99
422.903	0.97
423.265	0.99
423.627	0.97
423.989	0.96
424.351	0.96
424.713	0.94
425.075	0.94
425.436	0.93
425.798	0.98
426.16	0.96
426.521	0.96
426.883	0.96
427.245	0.92
427.606	0.93
427.967	0.91
428.329	0.92
428.69	0.94
429.052	0.93
429.413	0.95
429.774	0.93
430.135	0.95
430.497	0.93
430.858	0.93
431.219	0.92
431.58	0.88
431.941	0.86
432.302	0.9
432.663	0.9
433.024	0.95
433.384	0.89
433.745	0.87
434.106	0.85
434.467	0.9
434.827	0.91
435.188	0.87
435.548	0.9
435.909	0.85
436.269	0.87
436.63	0.86
436.99	0.86
437.351	0.86
437.711	0.88
438.071	0.82
438.431	0.82
438.792	0.83
439.152	0.85
439.512	0.82
439.872	0.83
440.232	0.85
440.592	0.84
440.952	0.82
441.312	0.79
441.671	0.8
442.031	0.78
442.391	0.81
442.751	0.82
443.11	0.8
443.47	0.78
443.83	0.78
444.189	0.77
444.549	0.79
444.908	0.75
445.267	0.78
445.627	0.76
445.986	0.75
446.345	0.75
446.705	0.77
447.064	0.75
447.423	0.74
447.782	0.72
448.141	0.72
448.5	0.7
448.859	0.72
449.218	0.74
449.577	0.71
449.936	0.71
450.295	0.7
450.653	0.69
451.012	0.69
451.371	0.69
451.729	0.69
452.088	0.69
452.447	0.69
452.805	0.69
453.163	0.7
453.522	0.67
453.88	0.66
454.239	0.65
454.597	0.65
454.955	0.66
455.313	0.64
455.671	0.65
456.029	0.65
456.388	0.62
456.746	0.63
457.104	0.62
457.461	0.61
457.819	0.6
458.177	0.58
458.535	0.58
458.893	0.57
459.25	0.58
459.608	0.58
459.966	0.56
460.323	0.55
460.681	0.54
461.038	0.55
461.396	0.54
461.753	0.54
462.111	0.51
462.468	0.52
462.825	0.51
463.182	0.51
463.54	0.5
463.897	0.51
464.254	0.49
464.611	0.48
464.968	0.48
465.325	0.48
465.682	0.47
466.039	0.47
466.395	0.47
466.752	0.46
467.109	0.45
467.466	0.45
467.822	0.44
468.179	0.44
468.535	0.44
468.892	0.43
469.248	0.43
469.605	0.42
469.961	0.41
470.318	0.43
470.674	0.41
471.03	0.41
471.386	0.4
471.743	0.39
472.099	0.39
472.455	0.39
472.811	0.37
473.167	0.37
473.523	0.36
473.879	0.36
474.235	0.36
474.59	0.35
474.946	0.34
475.302	0.34
475.657	0.33
476.013	0.33
476.369	0.33
476.724	0.33
477.08	0.33
477.435	0.31
477.791	0.32
478.146	0.32
478.501	0.31
478.857	0.31
479.212	0.31
479.567	0.29
479.922	0.29
480.277	0.29
480.632	0.28
480.987	0.29
481.342	0.28
481.697	0.27
482.052	0.27
482.407	0.27
482.762	0.27
483.116	0.26
483.471	0.25
483.826	0.25
484.18	0.25
484.535	0.25
484.89	0.24
485.244	0.24
485.598	0.25
485.953	0.24
486.307	0.24
486.661	0.24
487.016	0.23
487.37	0.23
487.724	0.24
488.078	0.23
488.432	0.22
488.786	0.23
489.14	0.22
489.494	0.21
489.848	0.22
490.202	0.21
490.556	0.21
490.91	0.21
491.263	0.2
491.617	0.2
491.971	0.21
492.324	0.2
492.678	0.21
493.031	0.2
493.385	0.2
493.738	0.2
494.091	0.2
494.445	0.19
494.798	0.19
495.151	0.19
495.504	0.19
495.857	0.19
496.21	0.19
496.564	0.19
496.916	0.19
497.269	0.18
497.622	0.19
497.975	0.19
498.328	0.19
498.681	0.18
499.033	0.18
499.386	0.18
499.739	0.18
500.091	0.17
500.444	0.17
500.796	0.18
501.149	0.17
501.501	0.17
501.854	0.17
502.206	0.16
502.558	0.17
502.91	0.17
503.263	0.17
503.615	0.17
503.967	0.16
504.319	0.17
504.671	0.16
505.023	0.17
505.375	0.17
505.726	0.16
506.078	0.16
506.43	0.16
506.782	0.16
507.133	0.16
507.485	0.16
507.837	0.16
508.188	0.16
508.54	0.16
508.891	0.16
509.243	0.15
509.594	0.16
509.945	0.16
510.296	0.16
510.648	0.16
510.999	0.15
511.35	0.15
511.701	0.16
512.052	0.15
512.403	0.16
512.754	0.15
513.105	0.15
513.456	0.15
513.807	0.15
514.157	0.15
514.508	0.15
514.859	0.15
515.209	0.15
515.56	0.15
515.91	0.14
516.261	0.15
516.611	0.14
516.962	0.14
517.312	0.15
517.662	0.15
518.013	0.15
518.363	0.15
518.713	0.15
519.063	0.15
519.413	0.15
519.763	0.14
520.113	0.15
520.463	0.16
520.813	0.16
521.163	0.16
521.512	0.15
521.862	0.15
522.212	0.15
522.562	0.16
522.911	0.15
523.261	0.15
523.61	0.15
523.96	0.15
524.309	0.15
524.658	0.16
525.008	0.15
525.357	0.15
525.706	0.16
526.056	0.14
526.405	0.15
526.754	0.15
527.103	0.15
527.452	0.16
527.801	0.15
528.15	0.16
528.499	0.15
528.847	0.15
529.196	0.16
529.545	0.16
529.893	0.16
530.242	0.16
530.591	0.16
530.939	0.17
531.288	0.16
531.636	0.16
531.985	0.17
532.333	0.16
532.681	0.16
533.029	0.17
533.378	0.16
533.726	0.16
534.074	0.17
534.422	0.16
534.77	0.16
535.118	0.15
535.466	0.16
535.814	0.15
536.162	0.16
536.509	0.16
536.857	0.15
537.205	0.17
537.552	0.17
537.9	0.16
538.248	0.15
538.595	0.16
538.943	0.17
539.29	0.16
539.637	0.16
539.985	0.15
540.332	0.15
540.679	0.16
541.026	0.15
541.373	0.16
541.721	0.15
542.068	0.14
542.415	0.16
542.762	0.16
543.108	0.15
543.455	0.15
543.802	0.15
544.149	0.15
544.496	0.15
544.842	0.15
545.189	0.14
545.535	0.15
545.882	0.15
546.228	0.15
546.575	0.15
546.921	0.15
547.267	0.15
547.614	0.16
547.96	0.16
548.306	0.15
548.652	0.14
548.998	0.16
549.344	0.15
549.69	0.15
550.036	0.16
550.382	0.15
550.728	0.15
551.074	0.16
551.42	0.17
551.765	0.16
552.111	0.16
552.457	0.17
552.802	0.16
553.148	0.16
553.493	0.16
553.839	0.16
554.184	0.16
554.529	0.15
554.875	0.17
555.22	0.16
555.565	0.16
555.91	0.15
556.255	0.17
556.6	0.17
556.945	0.16
557.29	0.16
557.635	0.17
557.98	0.16
558.325	0.16
558.67	0.16
559.014	0.16
559.359	0.16
559.704	0.17
560.048	0.15
560.393	0.15
560.737	0.15
561.082	0.16
561.426	0.15
561.77	0.15
562.115	0.15
562.459	0.15
562.803	0.16
563.147	0.16
563.491	0.16
563.835	0.15
564.179	0.14
564.523	0.16
564.867	0.15
565.211	0.17
565.555	0.15
565.899	0.16
566.242	0.16
566.586	0.15
566.93	0.16
567.273	0.17
567.617	0.16
567.96	0.15
568.304	0.17
568.647	0.16
568.99	0.16
569.334	0.16
569.677	0.16
570.02	0.16
570.363	0.16
570.706	0.16
571.049	0.16
571.392	0.16
571.735	0.16
572.078	0.16
572.421	0.16
572.764	0.15
573.106	0.16
573.449	0.16
573.792	0.16
574.134	0.16
574.477	0.16
574.819	0.16
575.162	0.16
575.504	0.16
575.847	0.16
576.189	0.16
576.531	0.16
576.873	0.17
577.215	0.16
577.558	0.16
577.9	0.15
578.242	0.16
578.584	0.16
578.926	0.16
579.267	0.16
579.609	0.16
579.951	0.16
580.293	0.16
580.634	0.16
580.976	0.16
581.318	0.16
581.659	0.16
582.001	0.16
582.342	0.15
582.683	0.16
583.025	0.15
583.366	0.16
583.707	0.16
584.049	0.15
584.39	0.16
584.731	0.15
585.072	0.15
585.413	0.17
585.754	0.16
586.095	0.17
586.435	0.16
586.776	0.16
587.117	0.16
587.458	0.16
587.798	0.16
588.139	0.16
588.48	0.15
588.82	0.15
589.161	0.15
589.501	0.15
589.841	0.16
590.182	0.15
590.522	0.16
590.862	0.15
591.202	0.16
591.542	0.15
591.882	0.16
592.222	0.16
592.562	0.16
592.902	0.15
593.242	0.16
593.582	0.16
593.922	0.15
594.261	0.15
594.601	0.16
594.941	0.15
595.28	0.16
595.62	0.16
595.959	0.15
596.299	0.16
596.638	0.16
596.977	0.16
597.317	0.16
597.656	0.16
597.995	0.15
598.334	0.16
598.673	0.16
599.012	0.15
599.351	0.15
599.69	0.15
600.029	0.15
600.368	0.15
600.707	0.15
601.046	0.15
601.384	0.15
601.723	0.16
602.061	0.15
602.4	0.16
602.738	0.16
603.077	0.15
603.415	0.16
603.754	0.15
604.092	0.16
604.43	0.15
604.768	0.16
605.107	0.16
605.445	0.15
605.783	0.15
606.121	0.15
606.459	0.15
606.796	0.15
607.134	0.15
607.472	0.15
607.81	0.16
608.148	0.15
608.485	0.15
608.823	0.15
609.16	0.15
609.498	0.15
609.835	0.15
610.173	0.15
610.51	0.16
610.847	0.16
611.185	0.16
611.522	0.16
611.859	0.16
612.196	0.16
612.533	0.16
612.87	0.17
613.207	0.16
613.544	0.16
613.881	0.17
614.217	0.16
614.554	0.16
614.891	0.16
615.228	0.16
615.564	0.17
615.901	0.16
616.237	0.16
616.574	0.16
616.91	0.17
617.246	0.17
617.583	0.16
617.919	0.17
618.255	0.17
618.591	0.17
618.927	0.16
619.263	0.18
619.599	0.17
619.935	0.16
620.271	0.16
620.607	0.16
620.943	0.16
621.279	0.16
621.614	0.16
621.95	0.16
622.286	0.15
622.621	0.15
622.957	0.16
623.292	0.15
623.627	0.16
623.963	0.15
624.298	0.15
624.633	0.15
624.968	0.15
625.304	0.15
625.639	0.15
625.974	0.15
626.309	0.14
626.644	0.15
626.979	0.15
627.313	0.15
627.648	0.15
627.983	0.15
628.318	0.14
628.652	0.14
628.987	0.14
629.321	0.15
629.656	0.15
629.99	0.14
630.325	0.15
630.659	0.15
630.993	0.14
631.327	0.15
631.662	0.14
631.996	0.14
632.33	0.14
632.664	0.15
632.998	0.14
633.332	0.14
633.666	0.14
633.999	0.14
634.333	0.13
634.667	0.14
635.001	0.13
635.334	0.14
635.668	0.14
636.001	0.14
636.335	0.14
636.668	0.14
637.001	0.13
637.335	0.14
637.668	0.13
638.001	0.13
638.334	0.14
638.668	0.13
639.001	0.13
639.334	0.13
639.667	0.13
639.999	0.13
640.332	0.13
640.665	0.13
640.998	0.13
641.331	0.13
641.663	0.13
641.996	0.13
642.328	0.13
642.661	0.13
642.993	0.13
643.326	0.13
643.658	0.12
643.99	0.13
644.323	0.12
644.655	0.13
644.987	0.14
645.319	0.13
645.651	0.14
645.983	0.14
646.315	0.13
646.647	0.13
646.979	0.15
647.31	0.14
647.642	0.14
647.974	0.13
648.305	0.15
648.637	0.13
648.968	0.14
649.3	0.14
649.631	0.14
649.963	0.14
650.294	0.14
650.625	0.14
650.957	0.15
651.288	0.14
651.619	0.15
651.95	0.14
652.281	0.14
652.612	0.14
652.943	0.14
653.274	0.14
653.604	0.14
653.935	0.13
654.266	0.13
654.596	0.13
654.927	0.12
655.258	0.13
655.588	0.14
655.918	0.14
656.249	0.12
656.579	0.13
656.909	0.13
657.24	0.13
657.57	0.14
657.9	0.13
658.23	0.13
658.56	0.13
658.89	0.14
659.22	0.13
659.55	0.14
659.88	0.14
660.209	0.14
660.539	0.15
660.869	0.14
661.198	0.14
661.528	0.14
661.857	0.13
662.187	0.14
662.516	0.13
662.846	0.13
663.175	0.13
663.504	0.13
663.833	0.13
664.163	0.13
664.492	0.13
664.821	0.13
665.15	0.13
665.479	0.13
665.807	0.13
666.136	0.13
666.465	0.12
666.794	0.12
667.122	0.12
667.451	0.12
667.78	0.12
668.108	0.13
668.437	0.12
668.765	0.13
669.093	0.13
669.422	0.12
669.75	0.13
670.078	0.12
670.406	0.13
670.734	0.13
671.062	0.13
671.39	0.12
671.718	0.13
672.046	0.13
672.374	0.12
672.702	0.12
673.029	0.12
673.357	0.13
673.685	0.13
674.012	0.12
674.34	0.11
674.667	0.12
674.995	0.12
675.322	0.12
675.649	0.12
675.977	0.12
676.304	0.12
676.631	0.12
676.958	0.11
677.285	0.11
677.612	0.11
677.939	0.12
678.266	0.12
678.593	0.11
678.92	0.12
679.246	0.1
679.573	0.11
679.9	0.11
680.226	0.11
680.553	0.1
680.879	0.11
681.206	0.11
681.532	0.1
681.858	0.11
682.184	0.11
682.511	0.1
682.837	0.1
683.163	0.12
683.489	0.11
683.815	0.11
684.141	0.11
684.467	0.11
684.793	0.11
685.118	0.11
685.444	0.11
685.77	0.11
686.095	0.11
686.421	0.11
686.746	0.11
687.072	0.12
687.397	0.11
687.723	0.12
688.048	0.12
688.373	0.11
688.698	0.11
689.023	0.11
689.349	0.11
689.674	0.11
689.999	0.11
690.323	0.1
690.648	0.1
690.973	0.09
691.298	0.1
691.623	0.1
691.947	0.1
692.272	0.1
692.596	0.09
692.921	0.1
693.245	0.09
693.57	0.1
693.894	0.1
694.218	0.1
694.543	0.1
694.867	0.09
695.191	0.09
695.515	0.09
695.839	0.09
696.163	0.1
696.487	0.1
696.811	0.1
697.135	0.09
697.458	0.1
697.782	0.09
698.106	0.09
698.429	0.1
698.753	0.09
699.076	0.09
699.4	0.09
699.723	0.09
700.046	0.09
700.37	0.1
700.693	0.1
701.016	0.09
701.339	0.09
701.662	0.11
701.985	0.1
702.308	0.1
702.631	0.09
702.954	0.1
703.277	0.09
703.599	0.09
703.922	0.09
704.245	0.09
704.567	0.09
704.89	0.09
705.212	0.1
705.535	0.09
705.857	0.09
706.179	0.09
706.502	0.09
706.824	0.08
707.146	0.09
707.468	0.09
707.79	0.09
708.112	0.08
708.434	0.09
708.756	0.09
709.078	0.09
709.399	0.09
709.721	0.09
710.043	0.09
710.364	0.09
710.686	0.08
711.007	0.09
711.329	0.09
711.65	0.09
711.972	0.09
712.293	0.09
712.614	0.09
712.935	0.09
713.256	0.09
713.577	0.09
713.898	0.08
714.219	0.09
714.54	0.08
714.861	0.08
715.182	0.09
715.503	0.08
715.823	0.08
716.144	0.08
716.464	0.08
716.785	0.08
717.105	0.07
717.426	0.08
717.746	0.08
718.066	0.06
718.387	0.08
718.707	0.07
719.027	0.08
719.347	0.07
719.667	0.07
719.987	0.06
720.307	0.06
720.627	0.06
720.947	0.07
721.266	0.07
721.586	0.06
721.906	0.06
722.225	0.06
722.545	0.06
722.864	0.06
723.184	0.07
