Data from 12-12-AQDScycling_Absorbance__383__00383.txt Node

Date: Tue Dec 12 12:32:29 EST 2023
User: kyuminlee
Spectrometer: FLMS00943
Trigger mode: 0
Integration Time (sec): 1.000000E-1
Scans to average: 1
Electric dark correction enabled: true
Nonlinearity correction enabled: false
Boxcar width: 0
XAxis mode: Wavelengths
Number of Pixels in Spectrum: 2048
>>>>>Begin Spectral Data<<<<<
179.651	-0
180.037	-0
180.424	-0
180.81	-0
181.197	0.08
181.583	-0
181.97	0.13
182.356	-0
182.743	-0
183.129	1.03
183.515	-0
183.901	-0
184.288	0.31
184.674	-0
185.06	-1.1
185.446	-0.48
185.832	-0
186.218	0.1
186.604	0.2
186.99	-0
187.376	-0
187.762	-0
188.148	0.44
188.534	0.26
188.92	0.04
189.305	0.05
189.691	0.04
190.077	0.1
190.463	0.05
190.848	0.01
191.234	0.11
191.619	0.09
192.005	0.04
192.391	0.06
192.776	0.19
193.161	0.2
193.547	0.24
193.932	-0.08
194.318	0.07
194.703	0.1
195.088	0.15
195.473	0.16
195.859	0.3
196.244	0.21
196.629	0.24
197.014	0.07
197.399	0.12
197.784	0.11
198.169	-0
198.554	0.1
198.939	0.2
199.324	0.07
199.709	0.1
200.094	0.11
200.478	0.02
200.863	0.13
201.248	0.15
201.633	0.18
202.017	0.15
202.402	0.15
202.787	0.2
203.171	0.14
203.556	0.13
203.94	0.17
204.325	0.23
204.709	0.19
205.093	0.05
205.478	0.21
205.862	0.12
206.246	0.1
206.631	0.1
207.015	0.29
207.399	0.15
207.783	0.21
208.167	0.24
208.551	0.2
208.935	0.18
209.319	0.04
209.703	0.14
210.087	0.32
210.471	0.05
210.855	0.09
211.239	0.27
211.623	0.32
212.007	0.14
212.39	0.2
212.774	0.24
213.158	0.06
213.541	0.2
213.925	0.1
214.309	0.39
214.692	0.33
215.076	0.23
215.459	0.15
215.842	0.04
216.226	0.21
216.609	0.19
216.993	0.28
217.376	0.48
217.759	0.25
218.142	0.22
218.525	0.45
218.909	0.37
219.292	0.34
219.675	0.36
220.058	0.45
220.441	0.46
220.824	0.38
221.207	0.54
221.59	0.49
221.973	0.55
222.355	0.5
222.738	0.68
223.121	0.51
223.504	0.56
223.886	0.71
224.269	0.73
224.652	0.71
225.034	0.79
225.417	0.63
225.799	0.76
226.182	0.79
226.564	0.85
226.947	0.69
227.329	0.84
227.711	0.95
228.094	0.8
228.476	0.87
228.858	0.74
229.24	0.86
229.623	0.84
230.005	0.86
230.387	0.77
230.769	0.86
231.151	0.89
231.533	0.85
231.915	0.96
232.297	1
232.679	0.87
233.061	1.01
233.442	0.99
233.824	0.99
234.206	1.1
234.588	1.08
234.969	1.03
235.351	0.91
235.733	1.1
236.114	1.13
236.496	1.1
236.877	1.04
237.259	0.99
237.64	1.09
238.022	1.07
238.403	0.98
238.784	0.96
239.165	0.98
239.547	1.12
239.928	1.04
240.309	1.04
240.69	0.99
241.071	1.1
241.452	1.11
241.834	1.03
242.215	1.02
242.595	1.2
242.976	1.03
243.357	1.13
243.738	1.1
244.119	1.33
244.5	1.16
244.881	1.19
245.261	1.33
245.642	1.17
246.023	1.15
246.403	1.21
246.784	1.32
247.164	1.3
247.545	1.33
247.925	1.32
248.306	1.2
248.686	1.54
249.067	1.31
249.447	1.33
249.827	1.35
250.207	1.4
250.588	1.26
250.968	1.52
251.348	1.29
251.728	1.36
252.108	1.32
252.488	1.34
252.868	1.33
253.248	1.3
253.628	1.5
254.008	1.53
254.388	1.24
254.768	1.27
255.147	1.25
255.527	1.33
255.907	1.4
256.287	1.36
256.666	1.3
257.046	1.38
257.425	1.64
257.805	1.37
258.184	1.34
258.564	1.49
258.943	1.31
259.323	1.43
259.702	1.42
260.081	1.53
260.461	1.55
260.84	1.39
261.219	1.55
261.598	1.55
261.977	1.44
262.356	1.49
262.736	1.75
263.115	1.57
263.494	1.45
263.873	1.36
264.251	1.43
264.63	1.49
265.009	1.46
265.388	1.36
265.767	1.33
266.145	1.43
266.524	1.4
266.903	1.52
267.281	1.33
267.66	1.57
268.039	1.38
268.417	1.45
268.796	1.45
269.174	1.54
269.552	1.38
269.931	1.43
270.309	1.36
270.687	1.5
271.066	1.55
271.444	1.36
271.822	1.45
272.2	1.4
272.578	1.42
272.956	1.44
273.334	1.54
273.712	1.3
274.09	1.53
274.468	1.28
274.846	1.3
275.224	1.35
275.602	1.35
275.98	1.63
276.357	1.54
276.735	1.49
277.113	1.39
277.49	1.28
277.868	1.39
278.246	1.51
278.623	1.27
279.001	1.29
279.378	1.39
279.756	1.52
280.133	1.57
280.51	1.39
280.888	1.4
281.265	1.32
281.642	1.48
282.019	1.58
282.396	1.59
282.773	1.62
283.151	1.44
283.528	1.5
283.905	1.4
284.282	1.51
284.659	1.39
285.035	1.35
285.412	1.36
285.789	1.58
286.166	1.36
286.543	1.45
286.919	1.43
287.296	1.41
287.673	1.61
288.049	1.52
288.426	1.51
288.802	1.6
289.179	1.43
289.555	1.55
289.932	1.53
290.308	1.32
290.684	1.34
291.061	1.31
291.437	1.63
291.813	1.49
292.189	1.3
292.565	1.26
292.942	1.38
293.318	1.31
293.694	1.33
294.07	1.29
294.446	1.41
294.822	1.67
295.197	1.41
295.573	1.44
295.949	1.34
296.325	1.52
296.701	1.36
297.076	1.52
297.452	1.52
297.828	1.32
298.203	1.53
298.579	1.34
298.954	1.37
299.33	1.41
299.705	1.36
300.081	1.39
300.456	1.44
300.831	1.26
301.206	1.28
301.582	1.38
301.957	1.28
302.332	1.33
302.707	1.26
303.082	1.19
303.457	1.27
303.832	1.21
304.207	1.18
304.582	1.13
304.957	1.12
305.332	1.16
305.707	1.18
306.082	1.15
306.456	1.15
306.831	1.07
307.206	1.15
307.58	1.08
307.955	1.06
308.33	1.03
308.704	1.03
309.079	1.03
309.453	1.04
309.828	1.04
310.202	1.05
310.576	0.99
310.951	1.04
311.325	1.02
311.699	0.97
312.073	0.91
312.447	0.98
312.821	0.92
313.196	0.94
313.57	0.85
313.944	0.88
314.317	0.9
314.691	0.92
315.065	0.87
315.439	0.92
315.813	0.9
316.187	0.91
316.56	0.94
316.934	0.9
317.308	0.88
317.681	0.87
318.055	0.87
318.428	0.86
318.802	0.86
319.175	0.84
319.549	0.85
319.922	0.86
320.295	0.83
320.669	0.88
321.042	0.88
321.415	0.89
321.788	0.83
322.162	0.87
322.535	0.86
322.908	0.86
323.281	0.85
323.654	0.91
324.027	0.81
324.4	0.89
324.773	0.86
325.145	0.85
325.518	0.86
325.891	0.83
326.264	0.87
326.636	0.84
327.009	0.83
327.382	0.89
327.754	0.91
328.127	0.88
328.499	0.86
328.872	0.89
329.244	0.88
329.616	0.86
329.989	0.93
330.361	0.9
330.733	0.88
331.106	0.87
331.478	0.89
331.85	0.88
332.222	0.9
332.594	0.94
332.966	0.92
333.338	0.96
333.71	0.93
334.082	0.95
334.454	0.9
334.826	0.95
335.197	0.97
335.569	0.96
335.941	0.92
336.312	0.96
336.684	0.98
337.056	0.99
337.427	1
337.799	0.98
338.17	1.01
338.542	0.98
338.913	1.02
339.284	1.02
339.656	1.01
340.027	1.03
340.398	1.11
340.769	1.06
341.141	1.12
341.512	1.07
341.883	1.09
342.254	1.07
342.625	1.08
342.996	1.09
343.367	1.1
343.738	1.11
344.108	1.08
344.479	1.14
344.85	1.11
345.221	1.18
345.591	1.09
345.962	1.18
346.333	1.19
346.703	1.02
347.074	1.1
347.444	1.1
347.815	1.17
348.185	1.12
348.556	1.13
348.926	1.1
349.296	1.23
349.666	1.15
350.037	1.16
350.407	1.1
350.777	1.12
351.147	1.25
351.517	1.23
351.887	1.21
352.257	1.34
352.627	1.22
352.997	1.16
353.367	1.37
353.737	1.27
354.106	1.41
354.476	1.25
354.846	1.29
355.216	1.35
355.585	1.39
355.955	1.34
356.324	1.55
356.694	1.45
357.063	1.31
357.433	1.3
357.802	1.39
358.171	1.47
358.541	1.43
358.91	1.41
359.279	1.52
359.648	1.4
360.017	1.47
360.387	1.55
360.756	1.36
361.125	1.5
361.494	1.53
361.863	1.47
362.231	1.49
362.6	1.58
362.969	1.67
363.338	1.44
363.707	1.58
364.075	1.67
364.444	1.43
364.813	1.46
365.181	1.42
365.55	1.45
365.918	1.6
366.287	1.6
366.655	1.74
367.024	1.59
367.392	1.53
367.76	1.42
368.128	1.57
368.497	1.56
368.865	1.48
369.233	1.54
369.601	1.52
369.969	1.63
370.337	1.51
370.705	1.59
371.073	1.53
371.441	1.52
371.809	1.46
372.177	1.51
372.544	1.61
372.912	1.46
373.28	1.46
373.647	1.58
374.015	1.69
374.383	1.71
374.75	1.8
375.118	1.59
375.485	1.63
375.853	1.57
376.22	1.52
376.587	1.65
376.955	1.5
377.322	1.54
377.689	1.49
378.056	1.38
378.423	1.45
378.79	1.56
379.157	1.48
379.524	1.48
379.891	1.52
380.258	1.58
380.625	1.43
380.992	1.4
381.359	1.46
381.726	1.55
382.092	1.46
382.459	1.61
382.826	1.53
383.192	1.56
383.559	1.52
383.925	1.45
384.292	1.46
384.658	1.94
385.025	1.58
385.391	1.74
385.757	1.48
386.123	1.61
386.49	1.69
386.856	1.78
387.222	1.53
387.588	1.66
387.954	1.71
388.32	1.64
388.686	1.55
389.052	1.4
389.418	1.63
389.784	1.53
390.15	1.52
390.515	1.36
390.881	1.71
391.247	1.47
391.613	1.59
391.978	1.49
392.344	1.6
392.709	1.72
393.075	1.53
393.44	1.59
393.806	1.59
394.171	1.54
394.536	1.51
394.902	1.66
395.267	1.59
395.632	1.43
395.997	1.41
396.362	1.55
396.727	1.89
397.092	1.47
397.457	1.6
397.822	1.46
398.187	1.63
398.552	1.44
398.917	1.72
399.282	1.51
399.646	1.55
400.011	1.67
400.376	1.44
400.74	1.47
401.105	1.48
401.47	1.59
401.834	1.52
402.199	1.49
402.563	1.47
402.927	1.45
403.292	1.65
403.656	1.59
404.02	1.52
404.384	1.69
404.749	1.62
405.113	1.69
405.477	1.62
405.841	1.69
406.205	1.59
406.569	1.61
406.933	1.53
407.296	1.52
407.66	1.73
408.024	1.69
408.388	1.64
408.752	1.54
409.115	1.69
409.479	1.65
409.842	1.51
410.206	1.45
410.569	1.77
410.933	1.63
411.296	1.35
411.66	1.48
412.023	1.37
412.386	1.5
412.749	1.46
413.113	1.55
413.476	1.56
413.839	1.62
414.202	1.57
414.565	1.51
414.928	1.58
415.291	1.44
415.654	1.44
416.017	1.51
416.38	1.37
416.742	1.56
417.105	1.45
417.468	1.42
417.83	1.49
418.193	1.59
418.556	1.41
418.918	1.33
419.281	1.52
419.643	1.46
420.005	1.48
420.368	1.53
420.73	1.5
421.092	1.53
421.455	1.62
421.817	1.35
422.179	1.44
422.541	1.52
422.903	1.66
423.265	1.59
423.627	1.52
423.989	1.38
424.351	1.41
424.713	1.52
425.075	1.45
425.436	1.49
425.798	1.47
426.16	1.56
426.521	1.44
426.883	1.54
427.245	1.57
427.606	1.46
427.967	1.43
428.329	1.61
428.69	1.53
429.052	1.47
429.413	1.56
429.774	1.61
430.135	1.53
430.497	1.59
430.858	1.48
431.219	1.5
431.58	1.45
431.941	1.43
432.302	1.42
432.663	1.55
433.024	1.57
433.384	1.55
433.745	1.45
434.106	1.52
434.467	1.47
434.827	1.5
435.188	1.41
435.548	1.5
435.909	1.42
436.269	1.47
436.63	1.43
436.99	1.47
437.351	1.41
437.711	1.46
438.071	1.39
438.431	1.43
438.792	1.39
439.152	1.42
439.512	1.44
439.872	1.48
440.232	1.48
440.592	1.42
440.952	1.39
441.312	1.38
441.671	1.38
442.031	1.42
442.391	1.47
442.751	1.52
443.11	1.43
443.47	1.36
443.83	1.28
444.189	1.38
444.549	1.33
444.908	1.28
445.267	1.33
445.627	1.33
445.986	1.31
446.345	1.33
446.705	1.34
447.064	1.39
447.423	1.3
447.782	1.29
448.141	1.3
448.5	1.24
448.859	1.27
449.218	1.28
449.577	1.32
449.936	1.32
450.295	1.27
450.653	1.24
451.012	1.22
451.371	1.22
451.729	1.21
452.088	1.22
452.447	1.22
452.805	1.2
453.163	1.2
453.522	1.2
453.88	1.18
454.239	1.17
454.597	1.13
454.955	1.11
455.313	1.16
455.671	1.14
456.029	1.14
456.388	1.09
456.746	1.09
457.104	1.08
457.461	1.06
457.819	1.05
458.177	1.03
458.535	1.02
458.893	1.02
459.25	1.01
459.608	0.99
459.966	1
460.323	0.97
460.681	0.95
461.038	0.93
461.396	0.91
461.753	0.91
462.111	0.89
462.468	0.87
462.825	0.88
463.182	0.87
463.54	0.83
463.897	0.84
464.254	0.83
464.611	0.81
464.968	0.81
465.325	0.81
465.682	0.78
466.039	0.77
466.395	0.76
466.752	0.75
467.109	0.75
467.466	0.73
467.822	0.73
468.179	0.7
468.535	0.69
468.892	0.68
469.248	0.67
469.605	0.66
469.961	0.66
470.318	0.65
470.674	0.63
471.03	0.62
471.386	0.61
471.743	0.59
472.099	0.59
472.455	0.58
472.811	0.57
473.167	0.57
473.523	0.55
473.879	0.54
474.235	0.52
474.59	0.51
474.946	0.51
475.302	0.5
475.657	0.49
476.013	0.48
476.369	0.47
476.724	0.47
477.08	0.47
477.435	0.45
477.791	0.45
478.146	0.44
478.501	0.43
478.857	0.43
479.212	0.41
479.567	0.4
479.922	0.39
480.277	0.39
480.632	0.38
480.987	0.37
481.342	0.36
481.697	0.36
482.052	0.35
482.407	0.35
482.762	0.34
483.116	0.33
483.471	0.32
483.826	0.31
484.18	0.31
484.535	0.31
484.89	0.3
485.244	0.3
485.598	0.29
485.953	0.29
486.307	0.28
486.661	0.29
487.016	0.26
487.37	0.27
487.724	0.27
488.078	0.26
488.432	0.25
488.786	0.25
489.14	0.25
489.494	0.23
489.848	0.23
490.202	0.23
490.556	0.23
490.91	0.22
491.263	0.22
491.617	0.21
491.971	0.21
492.324	0.21
492.678	0.2
493.031	0.21
493.385	0.2
493.738	0.2
494.091	0.2
494.445	0.19
494.798	0.19
495.151	0.18
495.504	0.18
495.857	0.18
496.21	0.18
496.564	0.17
496.916	0.17
497.269	0.16
497.622	0.17
497.975	0.16
498.328	0.17
498.681	0.16
499.033	0.16
499.386	0.16
499.739	0.15
500.091	0.15
500.444	0.15
500.796	0.15
501.149	0.14
501.501	0.14
501.854	0.14
502.206	0.14
502.558	0.13
502.91	0.14
503.263	0.13
503.615	0.13
503.967	0.13
504.319	0.13
504.671	0.12
505.023	0.12
505.375	0.12
505.726	0.12
506.078	0.12
506.43	0.11
506.782	0.11
507.133	0.11
507.485	0.12
507.837	0.12
508.188	0.12
508.54	0.12
508.891	0.12
509.243	0.11
509.594	0.11
509.945	0.11
510.296	0.11
510.648	0.11
510.999	0.1
511.35	0.1
511.701	0.1
512.052	0.1
512.403	0.1
512.754	0.11
513.105	0.1
513.456	0.1
513.807	0.09
514.157	0.11
514.508	0.11
514.859	0.1
515.209	0.1
515.56	0.1
515.91	0.1
516.261	0.1
516.611	0.1
516.962	0.1
517.312	0.1
517.662	0.1
518.013	0.1
518.363	0.1
518.713	0.1
519.063	0.1
519.413	0.1
519.763	0.1
520.113	0.1
520.463	0.1
520.813	0.1
521.163	0.1
521.512	0.1
521.862	0.09
522.212	0.1
522.562	0.09
522.911	0.1
523.261	0.09
523.61	0.09
523.96	0.09
524.309	0.1
524.658	0.09
525.008	0.09
525.357	0.09
525.706	0.1
526.056	0.09
526.405	0.09
526.754	0.09
527.103	0.09
527.452	0.09
527.801	0.1
528.15	0.09
528.499	0.09
528.847	0.09
529.196	0.1
529.545	0.1
529.893	0.1
530.242	0.09
530.591	0.1
530.939	0.1
531.288	0.1
531.636	0.1
531.985	0.09
532.333	0.09
532.681	0.1
533.029	0.1
533.378	0.1
533.726	0.1
534.074	0.1
534.422	0.09
534.77	0.1
535.118	0.1
535.466	0.09
535.814	0.1
536.162	0.1
536.509	0.1
536.857	0.1
537.205	0.1
537.552	0.1
537.9	0.09
538.248	0.09
538.595	0.1
538.943	0.1
539.29	0.1
539.637	0.1
539.985	0.09
540.332	0.09
540.679	0.09
541.026	0.09
541.373	0.1
541.721	0.08
542.068	0.09
542.415	0.09
542.762	0.09
543.108	0.08
543.455	0.08
543.802	0.08
544.149	0.08
544.496	0.09
544.842	0.08
545.189	0.08
545.535	0.08
545.882	0.09
546.228	0.08
546.575	0.08
546.921	0.08
547.267	0.09
547.614	0.09
547.96	0.08
548.306	0.08
548.652	0.07
548.998	0.09
549.344	0.08
549.69	0.09
550.036	0.08
550.382	0.09
550.728	0.08
551.074	0.08
551.42	0.09
551.765	0.08
552.111	0.09
552.457	0.09
552.802	0.09
553.148	0.08
553.493	0.08
553.839	0.09
554.184	0.09
554.529	0.09
554.875	0.09
555.22	0.09
555.565	0.09
555.91	0.09
556.255	0.1
556.6	0.09
556.945	0.08
557.29	0.09
557.635	0.1
557.98	0.09
558.325	0.09
558.67	0.09
559.014	0.09
559.359	0.09
559.704	0.09
560.048	0.09
560.393	0.09
560.737	0.08
561.082	0.09
561.426	0.08
561.77	0.09
562.115	0.09
562.459	0.09
562.803	0.09
563.147	0.08
563.491	0.08
563.835	0.09
564.179	0.08
564.523	0.08
564.867	0.08
565.211	0.08
565.555	0.08
565.899	0.09
566.242	0.09
566.586	0.08
566.93	0.09
567.273	0.1
567.617	0.1
567.96	0.09
568.304	0.09
568.647	0.09
568.99	0.09
569.334	0.1
569.677	0.09
570.02	0.1
570.363	0.09
570.706	0.09
571.049	0.09
571.392	0.09
571.735	0.09
572.078	0.09
572.421	0.1
572.764	0.09
573.106	0.09
573.449	0.08
573.792	0.09
574.134	0.08
574.477	0.09
574.819	0.09
575.162	0.08
575.504	0.09
575.847	0.09
576.189	0.09
576.531	0.09
576.873	0.09
577.215	0.09
577.558	0.09
577.9	0.08
578.242	0.09
578.584	0.09
578.926	0.09
579.267	0.09
579.609	0.09
579.951	0.08
580.293	0.09
580.634	0.09
580.976	0.09
581.318	0.09
581.659	0.09
582.001	0.09
582.342	0.09
582.683	0.09
583.025	0.08
583.366	0.08
583.707	0.09
584.049	0.08
584.39	0.08
584.731	0.09
585.072	0.08
585.413	0.09
585.754	0.09
586.095	0.09
586.435	0.09
586.776	0.09
587.117	0.08
587.458	0.08
587.798	0.08
588.139	0.09
588.48	0.09
588.82	0.08
589.161	0.09
589.501	0.08
589.841	0.09
590.182	0.09
590.522	0.08
590.862	0.08
591.202	0.09
591.542	0.08
591.882	0.08
592.222	0.08
592.562	0.09
592.902	0.08
593.242	0.08
593.582	0.09
593.922	0.09
594.261	0.08
594.601	0.08
594.941	0.08
595.28	0.09
595.62	0.09
595.959	0.09
596.299	0.09
596.638	0.09
596.977	0.08
597.317	0.1
597.656	0.09
597.995	0.09
598.334	0.1
598.673	0.09
599.012	0.08
599.351	0.09
599.69	0.08
600.029	0.09
600.368	0.09
600.707	0.09
601.046	0.09
601.384	0.1
601.723	0.09
602.061	0.09
602.4	0.09
602.738	0.09
603.077	0.09
603.415	0.08
603.754	0.09
604.092	0.09
604.43	0.08
604.768	0.09
605.107	0.09
605.445	0.08
605.783	0.09
606.121	0.08
606.459	0.08
606.796	0.08
607.134	0.08
607.472	0.08
607.81	0.08
608.148	0.08
608.485	0.09
608.823	0.09
609.16	0.08
609.498	0.08
609.835	0.08
610.173	0.08
610.51	0.08
610.847	0.09
611.185	0.09
611.522	0.09
611.859	0.09
612.196	0.09
612.533	0.09
612.87	0.09
613.207	0.1
613.544	0.09
613.881	0.1
614.217	0.1
614.554	0.09
614.891	0.09
615.228	0.09
615.564	0.09
615.901	0.1
616.237	0.09
616.574	0.1
616.91	0.1
617.246	0.09
617.583	0.09
617.919	0.1
618.255	0.1
618.591	0.09
618.927	0.1
619.263	0.1
619.599	0.1
619.935	0.09
620.271	0.1
620.607	0.1
620.943	0.09
621.279	0.1
621.614	0.09
621.95	0.09
622.286	0.09
622.621	0.09
622.957	0.09
623.292	0.09
623.627	0.08
623.963	0.08
624.298	0.08
624.633	0.08
624.968	0.08
625.304	0.08
625.639	0.08
625.974	0.08
626.309	0.08
626.644	0.09
626.979	0.09
627.313	0.08
627.648	0.08
627.983	0.08
628.318	0.08
628.652	0.08
628.987	0.08
629.321	0.08
629.656	0.08
629.99	0.08
630.325	0.08
630.659	0.07
630.993	0.07
631.327	0.08
631.662	0.07
631.996	0.07
632.33	0.07
632.664	0.08
632.998	0.08
633.332	0.08
633.666	0.08
633.999	0.08
634.333	0.07
634.667	0.07
635.001	0.07
635.334	0.08
635.668	0.07
636.001	0.07
636.335	0.07
636.668	0.08
637.001	0.07
637.335	0.07
637.668	0.08
638.001	0.07
638.334	0.07
638.668	0.07
639.001	0.07
639.334	0.07
639.667	0.06
639.999	0.07
640.332	0.07
640.665	0.07
640.998	0.07
641.331	0.07
641.663	0.06
641.996	0.07
642.328	0.07
642.661	0.07
642.993	0.07
643.326	0.07
643.658	0.06
643.99	0.06
644.323	0.07
644.655	0.07
644.987	0.07
645.319	0.07
645.651	0.07
645.983	0.07
646.315	0.06
646.647	0.06
646.979	0.07
647.31	0.08
647.642	0.07
647.974	0.07
648.305	0.08
648.637	0.07
648.968	0.07
649.3	0.07
649.631	0.07
649.963	0.07
650.294	0.08
650.625	0.07
650.957	0.08
651.288	0.07
651.619	0.07
651.95	0.08
652.281	0.07
652.612	0.08
652.943	0.08
653.274	0.08
653.604	0.08
653.935	0.08
654.266	0.07
654.596	0.07
654.927	0.07
655.258	0.08
655.588	0.08
655.918	0.08
656.249	0.06
656.579	0.07
656.909	0.07
657.24	0.07
657.57	0.08
657.9	0.08
658.23	0.07
658.56	0.08
658.89	0.08
659.22	0.08
659.55	0.08
659.88	0.08
660.209	0.09
660.539	0.09
660.869	0.08
661.198	0.08
661.528	0.08
661.857	0.07
662.187	0.09
662.516	0.08
662.846	0.08
663.175	0.08
663.504	0.08
663.833	0.08
664.163	0.08
664.492	0.08
664.821	0.08
665.15	0.08
665.479	0.08
665.807	0.07
666.136	0.08
666.465	0.07
666.794	0.07
667.122	0.07
667.451	0.07
667.78	0.08
668.108	0.07
668.437	0.07
668.765	0.07
669.093	0.07
669.422	0.07
669.75	0.07
670.078	0.07
670.406	0.08
670.734	0.08
671.062	0.07
671.39	0.08
671.718	0.07
672.046	0.07
672.374	0.07
672.702	0.07
673.029	0.07
673.357	0.08
673.685	0.07
674.012	0.07
674.34	0.07
674.667	0.08
674.995	0.08
675.322	0.07
675.649	0.07
675.977	0.07
676.304	0.07
676.631	0.07
676.958	0.07
677.285	0.07
677.612	0.07
677.939	0.08
678.266	0.08
678.593	0.07
678.92	0.08
679.246	0.07
679.573	0.07
679.9	0.07
680.226	0.07
680.553	0.07
680.879	0.07
681.206	0.07
681.532	0.07
681.858	0.07
682.184	0.07
682.511	0.07
682.837	0.06
683.163	0.06
683.489	0.07
683.815	0.07
684.141	0.07
684.467	0.07
684.793	0.06
685.118	0.06
685.444	0.07
685.77	0.06
686.095	0.07
686.421	0.07
686.746	0.07
687.072	0.07
687.397	0.07
687.723	0.07
688.048	0.07
688.373	0.07
688.698	0.07
689.023	0.07
689.349	0.07
689.674	0.08
689.999	0.07
690.323	0.06
690.648	0.06
690.973	0.07
691.298	0.07
691.623	0.06
691.947	0.07
692.272	0.06
692.596	0.06
692.921	0.07
693.245	0.06
693.57	0.07
693.894	0.07
694.218	0.07
694.543	0.07
694.867	0.07
695.191	0.05
695.515	0.06
695.839	0.06
696.163	0.06
696.487	0.06
696.811	0.06
697.135	0.06
697.458	0.07
697.782	0.06
698.106	0.07
698.429	0.07
698.753	0.06
699.076	0.06
699.4	0.06
699.723	0.07
700.046	0.07
700.37	0.07
700.693	0.06
701.016	0.06
701.339	0.06
701.662	0.07
701.985	0.07
702.308	0.06
702.631	0.06
702.954	0.07
703.277	0.07
703.599	0.06
703.922	0.06
704.245	0.06
704.567	0.06
704.89	0.06
705.212	0.06
705.535	0.06
705.857	0.05
706.179	0.05
706.502	0.05
706.824	0.05
707.146	0.05
707.468	0.06
707.79	0.05
708.112	0.06
708.434	0.06
708.756	0.05
709.078	0.06
709.399	0.05
709.721	0.06
710.043	0.06
710.364	0.06
710.686	0.06
711.007	0.06
711.329	0.07
711.65	0.06
711.972	0.06
712.293	0.06
712.614	0.06
712.935	0.06
713.256	0.07
713.577	0.06
713.898	0.06
714.219	0.06
714.54	0.06
714.861	0.05
715.182	0.06
715.503	0.05
715.823	0.05
716.144	0.05
716.464	0.04
716.785	0.05
717.105	0.05
717.426	0.05
717.746	0.05
718.066	0.04
718.387	0.04
718.707	0.04
719.027	0.05
719.347	0.04
719.667	0.05
719.987	0.04
720.307	0.04
720.627	0.04
720.947	0.05
721.266	0.05
721.586	0.04
721.906	0.05
722.225	0.04
722.545	0.05
722.864	0.05
723.184	0.05
723.503	0.04
723.823	0.05
724.142	0.04
724.461	0.05
724.78	0.05
725.099	0.04
