Data from 12-12-AQDScycling_Absorbance__261__00261.txt Node

Date: Tue Dec 12 12:02:00 EST 2023
User: kyuminlee
Spectrometer: FLMS00943
Trigger mode: 0
Integration Time (sec): 1.000000E-1
Scans to average: 1
Electric dark correction enabled: true
Nonlinearity correction enabled: false
Boxcar width: 0
XAxis mode: Wavelengths
Number of Pixels in Spectrum: 2048
>>>>>Begin Spectral Data<<<<<
179.651	-0
180.037	-0
180.424	-0
180.81	-0
181.197	0.33
181.583	-0
181.97	-0.08
182.356	-0
182.743	-0
183.129	0.45
183.515	-0
183.901	-2.73
184.288	-0.02
184.674	-0
185.06	-1.17
185.446	-0.57
185.832	-0.69
186.218	0.19
186.604	-0
186.99	-0
187.376	-0
187.762	-0
188.148	0.33
188.534	-0.13
188.92	0.02
189.305	0.07
189.691	0.2
190.077	0.1
190.463	0.07
190.848	-0.01
191.234	0.1
191.619	0.07
192.005	0.16
192.391	0.17
192.776	0.08
193.161	0.16
193.547	0.05
193.932	0.08
194.318	0.15
194.703	0.11
195.088	0.25
195.473	0.23
195.859	0.18
196.244	0.25
196.629	0.28
197.014	0.2
197.399	0.15
197.784	0.11
198.169	0.15
198.554	0.16
198.939	0.12
199.324	0.15
199.709	0.05
200.094	0.19
200.478	0.14
200.863	0.16
201.248	0.3
201.633	0.2
202.017	0.31
202.402	0.11
202.787	0.18
203.171	0.14
203.556	0.2
203.94	0.15
204.325	0.28
204.709	0.22
205.093	0.06
205.478	0.14
205.862	0.09
206.246	0.17
206.631	0.23
207.015	0.17
207.399	0.15
207.783	0.2
208.167	0.15
208.551	0.33
208.935	0.19
209.319	0.13
209.703	0.1
210.087	0.27
210.471	0.04
210.855	0.09
211.239	0.37
211.623	0.29
212.007	0.25
212.39	0.3
212.774	0.2
213.158	0.17
213.541	0.17
213.925	0.21
214.309	0.2
214.692	0.37
215.076	0.13
215.459	0.12
215.842	0.15
216.226	0.23
216.609	0.35
216.993	0.1
217.376	0.53
217.759	0.15
218.142	0.32
218.525	0.43
218.909	0.18
219.292	0.33
219.675	0.45
220.058	0.47
220.441	0.48
220.824	0.43
221.207	0.57
221.59	0.62
221.973	0.53
222.355	0.65
222.738	0.69
223.121	0.58
223.504	0.57
223.886	0.82
224.269	0.75
224.652	0.67
225.034	0.75
225.417	0.69
225.799	1.09
226.182	0.85
226.564	0.76
226.947	0.85
227.329	0.79
227.711	1
228.094	1.06
228.476	0.97
228.858	0.8
229.24	0.74
229.623	0.92
230.005	0.85
230.387	0.83
230.769	0.73
231.151	0.94
231.533	0.9
231.915	0.8
232.297	0.99
232.679	1.05
233.061	0.97
233.442	1.02
233.824	1.12
234.206	1.16
234.588	1.03
234.969	1.08
235.351	1.12
235.733	1.01
236.114	1.28
236.496	1.2
236.877	0.97
237.259	1.08
237.64	0.99
238.022	0.95
238.403	1.02
238.784	1
239.165	0.92
239.547	1.13
239.928	0.99
240.309	1.01
240.69	1.11
241.071	1.05
241.452	1.17
241.834	0.96
242.215	1
242.595	1.24
242.976	1.1
243.357	1.1
243.738	1.06
244.119	1.39
244.5	1.2
244.881	1.27
245.261	1.12
245.642	1.14
246.023	1.15
246.403	1.21
246.784	1.2
247.164	1.24
247.545	1.2
247.925	1.34
248.306	1.19
248.686	1.36
249.067	1.43
249.447	1.39
249.827	1.47
250.207	1.34
250.588	1.11
250.968	1.39
251.348	1.38
251.728	1.4
252.108	1.32
252.488	1.43
252.868	1.32
253.248	1.41
253.628	1.45
254.008	1.51
254.388	1.36
254.768	1.33
255.147	1.36
255.527	1.47
255.907	1.31
256.287	1.35
256.666	1.43
257.046	1.4
257.425	1.56
257.805	1.36
258.184	1.38
258.564	1.39
258.943	1.27
259.323	1.38
259.702	1.79
260.081	1.43
260.461	1.56
260.84	1.34
261.219	1.63
261.598	1.49
261.977	1.5
262.356	1.51
262.736	1.57
263.115	1.42
263.494	1.46
263.873	1.48
264.251	1.54
264.63	1.55
265.009	1.46
265.388	1.39
265.767	1.44
266.145	1.42
266.524	1.46
266.903	1.4
267.281	1.39
267.66	1.63
268.039	1.47
268.417	1.3
268.796	1.47
269.174	1.34
269.552	1.32
269.931	1.33
270.309	1.35
270.687	1.48
271.066	1.6
271.444	1.34
271.822	1.55
272.2	1.51
272.578	1.54
272.956	1.39
273.334	1.36
273.712	1.33
274.09	1.44
274.468	1.38
274.846	1.3
275.224	1.38
275.602	1.44
275.98	1.57
276.357	1.35
276.735	1.36
277.113	1.49
277.49	1.31
277.868	1.34
278.246	1.45
278.623	1.25
279.001	1.23
279.378	1.31
279.756	1.58
280.133	1.51
280.51	1.28
280.888	1.58
281.265	1.41
281.642	1.52
282.019	1.51
282.396	1.63
282.773	1.45
283.151	1.45
283.528	1.61
283.905	1.53
284.282	1.46
284.659	1.49
285.035	1.34
285.412	1.35
285.789	1.44
286.166	1.48
286.543	1.45
286.919	1.5
287.296	1.43
287.673	1.68
288.049	1.58
288.426	1.62
288.802	1.42
289.179	1.47
289.555	1.51
289.932	1.43
290.308	1.31
290.684	1.36
291.061	1.35
291.437	1.44
291.813	1.45
292.189	1.31
292.565	1.38
292.942	1.3
293.318	1.4
293.694	1.44
294.07	1.3
294.446	1.27
294.822	1.58
295.197	1.37
295.573	1.5
295.949	1.39
296.325	1.49
296.701	1.47
297.076	1.56
297.452	1.55
297.828	1.37
298.203	1.55
298.579	1.39
298.954	1.41
299.33	1.49
299.705	1.61
300.081	1.47
300.456	1.46
300.831	1.55
301.206	1.47
301.582	1.65
301.957	1.42
302.332	1.6
302.707	1.51
303.082	1.42
303.457	1.54
303.832	1.46
304.207	1.32
304.582	1.55
304.957	1.55
305.332	1.47
305.707	1.51
306.082	1.48
306.456	1.62
306.831	1.44
307.206	1.5
307.58	1.55
307.955	1.47
308.33	1.36
308.704	1.43
309.079	1.41
309.453	1.74
309.828	1.57
310.202	1.44
310.576	1.42
310.951	1.49
311.325	1.51
311.699	1.52
312.073	1.38
312.447	1.46
312.821	1.39
313.196	1.69
313.57	1.5
313.944	1.48
314.317	1.39
314.691	1.5
315.065	1.46
315.439	1.59
315.813	1.57
316.187	1.46
316.56	1.73
316.934	1.59
317.308	1.61
317.681	1.42
318.055	1.45
318.428	1.62
318.802	1.61
319.175	1.67
319.549	1.55
319.922	1.36
320.295	1.51
320.669	1.74
321.042	1.71
321.415	1.73
321.788	1.55
322.162	1.46
322.535	1.55
322.908	1.63
323.281	1.49
323.654	1.65
324.027	1.45
324.4	1.53
324.773	1.53
325.145	1.46
325.518	1.32
325.891	1.4
326.264	1.72
326.636	1.49
327.009	1.54
327.382	1.53
327.754	1.6
328.127	1.54
328.499	1.56
328.872	1.47
329.244	1.48
329.616	1.41
329.989	1.45
330.361	1.51
330.733	1.5
331.106	1.4
331.478	1.59
331.85	1.44
332.222	1.39
332.594	1.57
332.966	1.52
333.338	1.75
333.71	1.57
334.082	1.63
334.454	1.47
334.826	1.5
335.197	1.47
335.569	1.53
335.941	1.41
336.312	1.51
336.684	1.4
337.056	1.5
337.427	1.48
337.799	1.54
338.17	1.55
338.542	1.45
338.913	1.69
339.284	1.73
339.656	1.52
340.027	1.58
340.398	1.69
340.769	1.56
341.141	1.79
341.512	1.61
341.883	1.63
342.254	1.6
342.625	1.5
342.996	1.49
343.367	1.45
343.738	1.64
344.108	1.47
344.479	1.68
344.85	1.41
345.221	1.67
345.591	1.35
345.962	1.4
346.333	1.49
346.703	1.27
347.074	1.29
347.444	1.28
347.815	1.31
348.185	1.46
348.556	1.34
348.926	1.33
349.296	1.36
349.666	1.34
350.037	1.29
350.407	1.23
350.777	1.42
351.147	1.44
351.517	1.32
351.887	1.41
352.257	1.41
352.627	1.31
352.997	1.27
353.367	1.41
353.737	1.36
354.106	1.39
354.476	1.3
354.846	1.38
355.216	1.41
355.585	1.27
355.955	1.34
356.324	1.33
356.694	1.27
357.063	1.27
357.433	1.23
357.802	1.25
358.171	1.31
358.541	1.23
358.91	1.25
359.279	1.25
359.648	1.21
360.017	1.2
360.387	1.18
360.756	1.16
361.125	1.22
361.494	1.23
361.863	1.17
362.231	1.13
362.6	1.18
362.969	1.15
363.338	1.11
363.707	1.15
364.075	1.15
364.444	1.02
364.813	1.14
365.181	1.05
365.55	1.09
365.918	1.06
366.287	1.1
366.655	1.08
367.024	1.07
367.392	1.09
367.76	1.02
368.128	1.04
368.497	1.01
368.865	0.99
369.233	1.05
369.601	1.05
369.969	1.01
370.337	1.01
370.705	1.02
371.073	1
371.441	0.99
371.809	0.96
372.177	0.95
372.544	0.97
372.912	1.02
373.28	0.96
373.647	1.03
374.015	1.01
374.383	1
374.75	1.03
375.118	0.94
375.485	0.96
375.853	1
376.22	0.98
376.587	0.95
376.955	1.01
377.322	0.98
377.689	0.96
378.056	0.96
378.423	0.99
378.79	0.95
379.157	1.01
379.524	0.96
379.891	1.03
380.258	1.04
380.625	0.98
380.992	0.94
381.359	0.98
381.726	1.03
382.092	0.98
382.459	1
382.826	1
383.192	1.02
383.559	1.02
383.925	1.06
384.292	1.04
384.658	1.01
385.025	1.11
385.391	1.1
385.757	1.07
386.123	1.1
386.49	1.08
386.856	1.12
387.222	1.06
387.588	1.04
387.954	1.08
388.32	1.08
388.686	1.1
389.052	1.09
389.418	1.09
389.784	1.08
390.15	1.08
390.515	1.04
390.881	1.18
391.247	1.05
391.613	1.12
391.978	1.06
392.344	1.12
392.709	1.08
393.075	1.14
393.44	1.05
393.806	1.06
394.171	1.04
394.536	1.1
394.902	1.06
395.267	1.04
395.632	1.01
395.997	1.04
396.362	1.05
396.727	1.08
397.092	1.05
397.457	1.05
397.822	0.99
398.187	1.05
398.552	1.01
398.917	1.03
399.282	1.01
399.646	0.98
400.011	1.05
400.376	0.95
400.74	1.04
401.105	0.98
401.47	0.98
401.834	1.05
402.199	0.98
402.563	0.96
402.927	0.94
403.292	0.93
403.656	0.93
404.02	0.95
404.384	0.99
404.749	0.97
405.113	0.92
405.477	0.92
405.841	0.93
406.205	0.89
406.569	0.89
406.933	0.87
407.296	0.89
407.66	0.85
408.024	0.89
408.388	0.92
408.752	0.87
409.115	0.86
409.479	0.84
409.842	0.82
410.206	0.82
410.569	0.84
410.933	0.84
411.296	0.8
411.66	0.79
412.023	0.75
412.386	0.77
412.749	0.8
413.113	0.79
413.476	0.77
413.839	0.76
414.202	0.75
414.565	0.73
414.928	0.76
415.291	0.79
415.654	0.75
416.017	0.76
416.38	0.74
416.742	0.73
417.105	0.74
417.468	0.74
417.83	0.72
418.193	0.76
418.556	0.72
418.918	0.71
419.281	0.7
419.643	0.74
420.005	0.69
420.368	0.75
420.73	0.7
421.092	0.71
421.455	0.72
421.817	0.7
422.179	0.7
422.541	0.71
422.903	0.7
423.265	0.72
423.627	0.69
423.989	0.71
424.351	0.67
424.713	0.7
425.075	0.67
425.436	0.68
425.798	0.67
426.16	0.7
426.521	0.71
426.883	0.68
427.245	0.68
427.606	0.69
427.967	0.66
428.329	0.67
428.69	0.65
429.052	0.66
429.413	0.66
429.774	0.65
430.135	0.67
430.497	0.65
430.858	0.63
431.219	0.65
431.58	0.66
431.941	0.66
432.302	0.63
432.663	0.64
433.024	0.65
433.384	0.64
433.745	0.63
434.106	0.66
434.467	0.65
434.827	0.63
435.188	0.64
435.548	0.65
435.909	0.63
436.269	0.65
436.63	0.62
436.99	0.62
437.351	0.62
437.711	0.63
438.071	0.59
438.431	0.61
438.792	0.6
439.152	0.6
439.512	0.6
439.872	0.6
440.232	0.61
440.592	0.62
440.952	0.59
441.312	0.59
441.671	0.6
442.031	0.56
442.391	0.57
442.751	0.57
443.11	0.57
443.47	0.55
443.83	0.57
444.189	0.54
444.549	0.55
444.908	0.56
445.267	0.56
445.627	0.54
445.986	0.53
446.345	0.54
446.705	0.55
447.064	0.53
447.423	0.53
447.782	0.53
448.141	0.53
448.5	0.52
448.859	0.51
449.218	0.5
449.577	0.52
449.936	0.52
450.295	0.51
450.653	0.5
451.012	0.5
451.371	0.51
451.729	0.51
452.088	0.51
452.447	0.5
452.805	0.5
453.163	0.49
453.522	0.49
453.88	0.48
454.239	0.48
454.597	0.46
454.955	0.46
455.313	0.47
455.671	0.47
456.029	0.45
456.388	0.46
456.746	0.47
457.104	0.44
457.461	0.44
457.819	0.44
458.177	0.43
458.535	0.42
458.893	0.43
459.25	0.42
459.608	0.41
459.966	0.41
460.323	0.4
460.681	0.39
461.038	0.39
461.396	0.38
461.753	0.39
462.111	0.39
462.468	0.38
462.825	0.38
463.182	0.38
463.54	0.37
463.897	0.37
464.254	0.37
464.611	0.36
464.968	0.36
465.325	0.35
465.682	0.36
466.039	0.35
466.395	0.35
466.752	0.33
467.109	0.33
467.466	0.33
467.822	0.33
468.179	0.32
468.535	0.33
468.892	0.32
469.248	0.31
469.605	0.31
469.961	0.31
470.318	0.32
470.674	0.32
471.03	0.31
471.386	0.3
471.743	0.3
472.099	0.3
472.455	0.29
472.811	0.28
473.167	0.28
473.523	0.27
473.879	0.26
474.235	0.26
474.59	0.26
474.946	0.27
475.302	0.26
475.657	0.26
476.013	0.26
476.369	0.25
476.724	0.25
477.08	0.25
477.435	0.24
477.791	0.25
478.146	0.24
478.501	0.24
478.857	0.23
479.212	0.23
479.567	0.23
479.922	0.22
480.277	0.22
480.632	0.21
480.987	0.22
481.342	0.22
481.697	0.2
482.052	0.21
482.407	0.21
482.762	0.2
483.116	0.2
483.471	0.2
483.826	0.19
484.18	0.2
484.535	0.19
484.89	0.19
485.244	0.19
485.598	0.19
485.953	0.19
486.307	0.19
486.661	0.19
487.016	0.18
487.37	0.18
487.724	0.18
488.078	0.18
488.432	0.18
488.786	0.18
489.14	0.17
489.494	0.17
489.848	0.17
490.202	0.17
490.556	0.17
490.91	0.16
491.263	0.17
491.617	0.16
491.971	0.16
492.324	0.16
492.678	0.16
493.031	0.16
493.385	0.16
493.738	0.16
494.091	0.15
494.445	0.15
494.798	0.15
495.151	0.15
495.504	0.15
495.857	0.15
496.21	0.15
496.564	0.14
496.916	0.15
497.269	0.15
497.622	0.15
497.975	0.15
498.328	0.15
498.681	0.15
499.033	0.15
499.386	0.15
499.739	0.14
500.091	0.14
500.444	0.14
500.796	0.14
501.149	0.14
501.501	0.14
501.854	0.14
502.206	0.14
502.558	0.14
502.91	0.13
503.263	0.13
503.615	0.13
503.967	0.13
504.319	0.13
504.671	0.13
505.023	0.13
505.375	0.13
505.726	0.12
506.078	0.13
506.43	0.13
506.782	0.12
507.133	0.13
507.485	0.13
507.837	0.14
508.188	0.13
508.54	0.13
508.891	0.14
509.243	0.12
509.594	0.13
509.945	0.13
510.296	0.12
510.648	0.13
510.999	0.13
511.35	0.13
511.701	0.12
512.052	0.12
512.403	0.13
512.754	0.13
513.105	0.12
513.456	0.12
513.807	0.13
514.157	0.12
514.508	0.12
514.859	0.12
515.209	0.12
515.56	0.12
515.91	0.12
516.261	0.12
516.611	0.11
516.962	0.12
517.312	0.12
517.662	0.12
518.013	0.11
518.363	0.12
518.713	0.11
519.063	0.12
519.413	0.12
519.763	0.12
520.113	0.11
520.463	0.13
520.813	0.12
521.163	0.12
521.512	0.12
521.862	0.12
522.212	0.13
522.562	0.12
522.911	0.12
523.261	0.11
523.61	0.12
523.96	0.12
524.309	0.13
524.658	0.12
525.008	0.11
525.357	0.12
525.706	0.13
526.056	0.12
526.405	0.12
526.754	0.12
527.103	0.11
527.452	0.12
527.801	0.12
528.15	0.12
528.499	0.12
528.847	0.12
529.196	0.13
529.545	0.12
529.893	0.13
530.242	0.12
530.591	0.13
530.939	0.13
531.288	0.13
531.636	0.13
531.985	0.13
532.333	0.12
532.681	0.13
533.029	0.13
533.378	0.13
533.726	0.13
534.074	0.13
534.422	0.12
534.77	0.13
535.118	0.13
535.466	0.13
535.814	0.13
536.162	0.13
536.509	0.13
536.857	0.13
537.205	0.13
537.552	0.13
537.9	0.13
538.248	0.13
538.595	0.13
538.943	0.14
539.29	0.13
539.637	0.13
539.985	0.13
540.332	0.13
540.679	0.12
541.026	0.13
541.373	0.13
541.721	0.12
542.068	0.12
542.415	0.12
542.762	0.12
543.108	0.11
543.455	0.12
543.802	0.11
544.149	0.11
544.496	0.12
544.842	0.12
545.189	0.11
545.535	0.11
545.882	0.12
546.228	0.12
546.575	0.11
546.921	0.11
547.267	0.11
547.614	0.11
547.96	0.11
548.306	0.12
548.652	0.11
548.998	0.12
549.344	0.11
549.69	0.12
550.036	0.12
550.382	0.11
550.728	0.12
551.074	0.13
551.42	0.13
551.765	0.13
552.111	0.13
552.457	0.13
552.802	0.12
553.148	0.12
553.493	0.12
553.839	0.13
554.184	0.13
554.529	0.12
554.875	0.13
555.22	0.13
555.565	0.13
555.91	0.13
556.255	0.14
556.6	0.13
556.945	0.12
557.29	0.13
557.635	0.13
557.98	0.13
558.325	0.12
558.67	0.13
559.014	0.13
559.359	0.12
559.704	0.13
560.048	0.12
560.393	0.13
560.737	0.12
561.082	0.12
561.426	0.12
561.77	0.12
562.115	0.11
562.459	0.11
562.803	0.11
563.147	0.13
563.491	0.12
563.835	0.12
564.179	0.12
564.523	0.12
564.867	0.12
565.211	0.12
565.555	0.12
565.899	0.13
566.242	0.12
566.586	0.12
566.93	0.12
567.273	0.13
567.617	0.12
567.96	0.12
568.304	0.13
568.647	0.12
568.99	0.13
569.334	0.13
569.677	0.13
570.02	0.12
570.363	0.13
570.706	0.12
571.049	0.13
571.392	0.12
571.735	0.12
572.078	0.13
572.421	0.13
572.764	0.13
573.106	0.13
573.449	0.12
573.792	0.12
574.134	0.13
574.477	0.12
574.819	0.13
575.162	0.12
575.504	0.12
575.847	0.13
576.189	0.13
576.531	0.12
576.873	0.12
577.215	0.12
577.558	0.12
577.9	0.12
578.242	0.13
578.584	0.12
578.926	0.12
579.267	0.13
579.609	0.13
579.951	0.13
580.293	0.13
580.634	0.13
580.976	0.13
581.318	0.12
581.659	0.12
582.001	0.12
582.342	0.12
582.683	0.13
583.025	0.12
583.366	0.12
583.707	0.12
584.049	0.12
584.39	0.12
584.731	0.11
585.072	0.12
585.413	0.13
585.754	0.13
586.095	0.13
586.435	0.13
586.776	0.13
587.117	0.12
587.458	0.12
587.798	0.12
588.139	0.13
588.48	0.12
588.82	0.12
589.161	0.12
589.501	0.12
589.841	0.12
590.182	0.12
590.522	0.12
590.862	0.12
591.202	0.13
591.542	0.12
591.882	0.13
592.222	0.12
592.562	0.12
592.902	0.12
593.242	0.12
593.582	0.12
593.922	0.11
594.261	0.12
594.601	0.12
594.941	0.12
595.28	0.13
595.62	0.12
595.959	0.12
596.299	0.13
596.638	0.12
596.977	0.12
597.317	0.13
597.656	0.12
597.995	0.12
598.334	0.12
598.673	0.12
599.012	0.12
599.351	0.12
599.69	0.11
600.029	0.13
600.368	0.12
600.707	0.12
601.046	0.12
601.384	0.13
601.723	0.13
602.061	0.12
602.4	0.13
602.738	0.13
603.077	0.12
603.415	0.12
603.754	0.12
604.092	0.12
604.43	0.12
604.768	0.12
605.107	0.12
605.445	0.12
605.783	0.12
606.121	0.12
606.459	0.12
606.796	0.12
607.134	0.12
607.472	0.12
607.81	0.13
608.148	0.11
608.485	0.12
608.823	0.12
609.16	0.12
609.498	0.12
609.835	0.12
610.173	0.12
610.51	0.12
610.847	0.12
611.185	0.13
611.522	0.12
611.859	0.12
612.196	0.13
612.533	0.13
612.87	0.13
613.207	0.13
613.544	0.12
613.881	0.13
614.217	0.12
614.554	0.12
614.891	0.12
615.228	0.13
615.564	0.13
615.901	0.13
616.237	0.13
616.574	0.12
616.91	0.13
617.246	0.13
617.583	0.13
617.919	0.13
618.255	0.13
618.591	0.13
618.927	0.12
619.263	0.14
619.599	0.14
619.935	0.13
620.271	0.13
620.607	0.13
620.943	0.12
621.279	0.13
621.614	0.13
621.95	0.13
622.286	0.12
622.621	0.13
622.957	0.12
623.292	0.12
623.627	0.12
623.963	0.12
624.298	0.12
624.633	0.12
624.968	0.12
625.304	0.12
625.639	0.11
625.974	0.12
626.309	0.12
626.644	0.11
626.979	0.12
627.313	0.12
627.648	0.12
627.983	0.11
628.318	0.11
628.652	0.11
628.987	0.11
629.321	0.11
629.656	0.1
629.99	0.11
630.325	0.12
630.659	0.12
630.993	0.11
631.327	0.11
631.662	0.11
631.996	0.11
632.33	0.11
632.664	0.11
632.998	0.11
633.332	0.11
633.666	0.11
633.999	0.11
634.333	0.11
634.667	0.11
635.001	0.11
635.334	0.11
635.668	0.11
636.001	0.11
636.335	0.11
636.668	0.11
637.001	0.1
637.335	0.11
637.668	0.11
638.001	0.1
638.334	0.11
638.668	0.1
639.001	0.1
639.334	0.1
639.667	0.09
639.999	0.1
640.332	0.1
640.665	0.1
640.998	0.1
641.331	0.1
641.663	0.1
641.996	0.1
642.328	0.1
642.661	0.1
642.993	0.1
643.326	0.1
643.658	0.1
643.99	0.09
644.323	0.09
644.655	0.1
644.987	0.11
645.319	0.1
645.651	0.1
645.983	0.11
646.315	0.1
646.647	0.11
646.979	0.11
647.31	0.1
647.642	0.1
647.974	0.11
648.305	0.11
648.637	0.11
648.968	0.11
649.3	0.11
649.631	0.11
649.963	0.11
650.294	0.11
650.625	0.11
650.957	0.12
651.288	0.11
651.619	0.12
651.95	0.11
652.281	0.11
652.612	0.11
652.943	0.11
653.274	0.12
653.604	0.11
653.935	0.11
654.266	0.11
654.596	0.11
654.927	0.1
655.258	0.1
655.588	0.11
655.918	0.11
656.249	0.09
656.579	0.1
656.909	0.1
657.24	0.1
657.57	0.12
657.9	0.11
658.23	0.11
658.56	0.11
658.89	0.12
659.22	0.11
659.55	0.11
659.88	0.12
660.209	0.11
660.539	0.13
660.869	0.11
661.198	0.12
661.528	0.11
661.857	0.12
662.187	0.12
662.516	0.12
662.846	0.11
663.175	0.11
663.504	0.11
663.833	0.11
664.163	0.12
664.492	0.1
664.821	0.1
665.15	0.11
665.479	0.11
665.807	0.1
666.136	0.11
666.465	0.11
666.794	0.1
667.122	0.1
667.451	0.1
667.78	0.11
668.108	0.1
668.437	0.09
668.765	0.11
669.093	0.11
669.422	0.1
669.75	0.1
670.078	0.1
670.406	0.11
670.734	0.11
671.062	0.11
671.39	0.1
671.718	0.11
672.046	0.1
672.374	0.1
672.702	0.1
673.029	0.1
673.357	0.1
673.685	0.12
674.012	0.1
674.34	0.1
674.667	0.11
674.995	0.11
675.322	0.11
675.649	0.1
675.977	0.1
676.304	0.1
676.631	0.1
676.958	0.1
677.285	0.1
677.612	0.09
677.939	0.1
678.266	0.1
678.593	0.1
678.92	0.1
679.246	0.09
679.573	0.1
679.9	0.09
680.226	0.09
680.553	0.09
680.879	0.09
681.206	0.1
681.532	0.09
681.858	0.09
682.184	0.08
682.511	0.09
682.837	0.08
683.163	0.09
683.489	0.09
683.815	0.09
684.141	0.09
684.467	0.09
684.793	0.09
685.118	0.08
685.444	0.09
685.77	0.09
686.095	0.1
686.421	0.09
686.746	0.1
687.072	0.09
687.397	0.09
687.723	0.1
688.048	0.1
688.373	0.09
688.698	0.1
689.023	0.1
689.349	0.1
689.674	0.09
689.999	0.09
690.323	0.09
690.648	0.09
690.973	0.08
691.298	0.08
691.623	0.08
691.947	0.08
692.272	0.08
692.596	0.08
692.921	0.09
693.245	0.08
693.57	0.08
693.894	0.08
694.218	0.08
694.543	0.08
694.867	0.08
695.191	0.08
695.515	0.09
695.839	0.08
696.163	0.08
696.487	0.08
696.811	0.08
697.135	0.08
697.458	0.09
697.782	0.08
698.106	0.08
698.429	0.09
698.753	0.08
699.076	0.08
699.4	0.09
699.723	0.08
700.046	0.08
700.37	0.08
700.693	0.08
701.016	0.08
701.339	0.08
701.662	0.08
701.985	0.08
702.308	0.08
702.631	0.08
702.954	0.09
703.277	0.08
703.599	0.08
703.922	0.08
704.245	0.08
704.567	0.07
704.89	0.08
705.212	0.07
705.535	0.07
705.857	0.07
706.179	0.07
706.502	0.07
706.824	0.07
707.146	0.07
707.468	0.07
707.79	0.07
708.112	0.08
708.434	0.08
708.756	0.08
709.078	0.08
709.399	0.07
709.721	0.07
710.043	0.08
710.364	0.08
710.686	0.08
711.007	0.07
711.329	0.08
711.65	0.08
711.972	0.08
712.293	0.08
712.614	0.07
712.935	0.08
713.256	0.07
713.577	0.08
713.898	0.07
714.219	0.07
714.54	0.06
714.861	0.06
715.182	0.07
715.503	0.07
715.823	0.07
716.144	0.07
716.464	0.06
716.785	0.06
717.105	0.07
717.426	0.07
717.746	0.07
718.066	0.06
718.387	0.07
718.707	0.06
719.027	0.07
719.347	0.05
719.667	0.07
719.987	0.06
720.307	0.05
720.627	0.06
720.947	0.05
721.266	0.06
721.586	0.05
721.906	0.05
722.225	0.05
722.545	0.06
722.864	0.05
723.184	0.06
723.503	0.05
723.823	0.06
724.142	0.05
724.461	0.05
724.78	0.05
725.099	0.05
