Data from 12-12-AQDScycling_Absorbance__29__00029.txt Node

Date: Tue Dec 12 11:03:59 EST 2023
User: kyuminlee
Spectrometer: FLMS00943
Trigger mode: 0
Integration Time (sec): 1.000000E-1
Scans to average: 1
Electric dark correction enabled: true
Nonlinearity correction enabled: false
Boxcar width: 0
XAxis mode: Wavelengths
Number of Pixels in Spectrum: 2048
>>>>>Begin Spectral Data<<<<<
179.651	-0
180.037	-0
180.424	-0
180.81	0.59
181.197	0.62
181.583	0.73
181.97	-0.5
182.356	-0
182.743	-0.62
183.129	0.1
183.515	0.33
183.901	-0
184.288	0.17
184.674	0.59
185.06	-0.84
185.446	-0
185.832	-0
186.218	0.09
186.604	-0.03
186.99	-0
187.376	-0
187.762	0.69
188.148	1.01
188.534	-0.16
188.92	0.03
189.305	0.12
189.691	0.22
190.077	0.15
190.463	0.2
190.848	0.19
191.234	0.06
191.619	0.14
192.005	0.14
192.391	0.15
192.776	0.15
193.161	0.24
193.547	0.14
193.932	-0.08
194.318	0.15
194.703	0.23
195.088	0.2
195.473	0.26
195.859	0.18
196.244	0.24
196.629	0.18
197.014	0.18
197.399	0.27
197.784	0.21
198.169	0.16
198.554	0.24
198.939	0.15
199.324	0.21
199.709	0.07
200.094	0.13
200.478	0.04
200.863	0.35
201.248	0.26
201.633	0.16
202.017	0.08
202.402	0.31
202.787	0.14
203.171	0.04
203.556	0.16
203.94	0.1
204.325	0.27
204.709	0.23
205.093	0.19
205.478	0.04
205.862	0.12
206.246	0.2
206.631	0.48
207.015	0.23
207.399	0.09
207.783	0.17
208.167	0.16
208.551	0.14
208.935	0.12
209.319	0.16
209.703	0.15
210.087	0.33
210.471	0.08
210.855	0.13
211.239	0.23
211.623	0.19
212.007	0.21
212.39	0.37
212.774	0.27
213.158	0.13
213.541	0.33
213.925	0.25
214.309	0.46
214.692	0.39
215.076	0.16
215.459	0.18
215.842	0.21
216.226	0.28
216.609	0.31
216.993	0.24
217.376	0.61
217.759	0.19
218.142	0.39
218.525	0.58
218.909	0.38
219.292	0.3
219.675	0.43
220.058	0.6
220.441	0.49
220.824	0.47
221.207	0.63
221.59	0.5
221.973	0.7
222.355	0.67
222.738	0.77
223.121	0.65
223.504	0.52
223.886	0.68
224.269	0.74
224.652	0.68
225.034	0.76
225.417	0.88
225.799	0.76
226.182	0.91
226.564	0.97
226.947	0.86
227.329	0.83
227.711	0.87
228.094	1
228.476	0.99
228.858	0.8
229.24	0.75
229.623	0.79
230.005	0.74
230.387	0.86
230.769	0.95
231.151	1
231.533	0.99
231.915	0.95
232.297	1.07
232.679	1.03
233.061	1.09
233.442	0.98
233.824	1
234.206	1.08
234.588	0.95
234.969	1.21
235.351	1
235.733	1.09
236.114	1.17
236.496	1.13
236.877	1.27
237.259	1.13
237.64	1.19
238.022	1.04
238.403	1.09
238.784	1.11
239.165	0.94
239.547	1.03
239.928	0.95
240.309	1.08
240.69	1.1
241.071	1.27
241.452	1.08
241.834	1.1
242.215	1.1
242.595	1.18
242.976	1.2
243.357	1.16
243.738	1.07
244.119	1.21
244.5	1.24
244.881	1.25
245.261	1.29
245.642	1.14
246.023	1.2
246.403	1.24
246.784	1.19
247.164	1.26
247.545	1.38
247.925	1.21
248.306	1.23
248.686	1.41
249.067	1.27
249.447	1.26
249.827	1.48
250.207	1.37
250.588	1.21
250.968	1.49
251.348	1.42
251.728	1.43
252.108	1.34
252.488	1.44
252.868	1.36
253.248	1.32
253.628	1.35
254.008	1.56
254.388	1.36
254.768	1.27
255.147	1.34
255.527	1.62
255.907	1.39
256.287	1.38
256.666	1.29
257.046	1.41
257.425	1.42
257.805	1.37
258.184	1.29
258.564	1.56
258.943	1.38
259.323	1.55
259.702	1.46
260.081	1.48
260.461	1.6
260.84	1.54
261.219	1.64
261.598	1.5
261.977	1.42
262.356	1.58
262.736	1.48
263.115	1.65
263.494	1.51
263.873	1.5
264.251	1.45
264.63	1.5
265.009	1.36
265.388	1.48
265.767	1.32
266.145	1.4
266.524	1.31
266.903	1.48
267.281	1.33
267.66	1.46
268.039	1.45
268.417	1.33
268.796	1.4
269.174	1.45
269.552	1.38
269.931	1.44
270.309	1.42
270.687	1.69
271.066	1.65
271.444	1.5
271.822	1.48
272.2	1.58
272.578	1.39
272.956	1.44
273.334	1.39
273.712	1.42
274.09	1.5
274.468	1.41
274.846	1.34
275.224	1.42
275.602	1.48
275.98	1.6
276.357	1.36
276.735	1.57
277.113	1.52
277.49	1.35
277.868	1.39
278.246	1.58
278.623	1.34
279.001	1.26
279.378	1.52
279.756	1.5
280.133	1.66
280.51	1.61
280.888	1.35
281.265	1.53
281.642	1.53
282.019	1.54
282.396	1.52
282.773	1.52
283.151	1.49
283.528	1.41
283.905	1.45
284.282	1.61
284.659	1.77
285.035	1.34
285.412	1.32
285.789	1.64
286.166	1.45
286.543	1.63
286.919	1.45
287.296	1.32
287.673	1.61
288.049	1.54
288.426	1.6
288.802	1.43
289.179	1.5
289.555	1.63
289.932	1.43
290.308	1.27
290.684	1.44
291.061	1.44
291.437	1.69
291.813	1.55
292.189	1.25
292.565	1.36
292.942	1.36
293.318	1.46
293.694	1.39
294.07	1.31
294.446	1.43
294.822	1.54
295.197	1.33
295.573	1.52
295.949	1.52
296.325	1.57
296.701	1.56
297.076	1.59
297.452	1.74
297.828	1.48
298.203	1.65
298.579	1.53
298.954	1.55
299.33	1.5
299.705	1.52
300.081	1.45
300.456	1.58
300.831	1.38
301.206	1.4
301.582	1.66
301.957	1.51
302.332	1.64
302.707	1.52
303.082	1.51
303.457	1.65
303.832	1.53
304.207	1.37
304.582	1.59
304.957	1.5
305.332	1.64
305.707	1.44
306.082	1.67
306.456	1.66
306.831	1.37
307.206	1.62
307.58	1.61
307.955	1.51
308.33	1.49
308.704	1.58
309.079	1.65
309.453	1.64
309.828	1.56
310.202	1.4
310.576	1.47
310.951	1.64
311.325	1.61
311.699	1.57
312.073	1.5
312.447	1.58
312.821	1.49
313.196	1.47
313.57	1.41
313.944	1.42
314.317	1.44
314.691	1.5
315.065	1.57
315.439	1.66
315.813	1.56
316.187	1.43
316.56	1.77
316.934	1.53
317.308	1.49
317.681	1.48
318.055	1.51
318.428	1.66
318.802	1.6
319.175	1.41
319.549	1.47
319.922	1.42
320.295	1.5
320.669	1.82
321.042	1.63
321.415	1.73
321.788	1.59
322.162	1.51
322.535	1.56
322.908	1.52
323.281	1.41
323.654	1.69
324.027	1.45
324.4	1.58
324.773	1.48
325.145	1.54
325.518	1.38
325.891	1.51
326.264	1.73
326.636	1.41
327.009	1.49
327.382	1.51
327.754	1.66
328.127	1.49
328.499	1.48
328.872	1.57
329.244	1.51
329.616	1.41
329.989	1.45
330.361	1.49
330.733	1.5
331.106	1.48
331.478	1.58
331.85	1.49
332.222	1.57
332.594	1.6
332.966	1.44
333.338	1.77
333.71	1.57
334.082	1.76
334.454	1.44
334.826	1.47
335.197	1.55
335.569	1.45
335.941	1.48
336.312	1.57
336.684	1.57
337.056	1.43
337.427	1.55
337.799	1.64
338.17	1.69
338.542	1.51
338.913	1.48
339.284	1.7
339.656	1.52
340.027	1.57
340.398	1.58
340.769	1.51
341.141	1.66
341.512	1.49
341.883	1.66
342.254	1.57
342.625	1.54
342.996	1.58
343.367	1.46
343.738	1.83
344.108	1.41
344.479	1.56
344.85	1.43
345.221	1.63
345.591	1.39
345.962	1.45
346.333	1.66
346.703	1.36
347.074	1.42
347.444	1.37
347.815	1.39
348.185	1.43
348.556	1.57
348.926	1.38
349.296	1.5
349.666	1.31
350.037	1.46
350.407	1.27
350.777	1.31
351.147	1.38
351.517	1.35
351.887	1.38
352.257	1.43
352.627	1.4
352.997	1.32
353.367	1.41
353.737	1.38
354.106	1.48
354.476	1.28
354.846	1.35
355.216	1.35
355.585	1.42
355.955	1.4
356.324	1.31
356.694	1.26
357.063	1.34
357.433	1.24
357.802	1.28
358.171	1.27
358.541	1.21
358.91	1.32
359.279	1.25
359.648	1.2
360.017	1.25
360.387	1.21
360.756	1.13
361.125	1.15
361.494	1.26
361.863	1.14
362.231	1.13
362.6	1.15
362.969	1.13
363.338	1.08
363.707	1.12
364.075	1.09
364.444	1.02
364.813	1.02
365.181	1.02
365.55	1.03
365.918	1.09
366.287	1.03
366.655	1.02
367.024	1.01
367.392	0.98
367.76	0.97
368.128	0.99
368.497	0.94
368.865	0.93
369.233	0.97
369.601	0.98
369.969	0.95
370.337	0.9
370.705	0.97
371.073	0.94
371.441	0.92
371.809	0.88
372.177	0.9
372.544	0.91
372.912	0.89
373.28	0.89
373.647	0.9
374.015	0.92
374.383	0.91
374.75	0.92
375.118	0.86
375.485	0.91
375.853	0.92
376.22	0.86
376.587	0.91
376.955	0.9
377.322	0.89
377.689	0.9
378.056	0.87
378.423	0.89
378.79	0.9
379.157	0.9
379.524	0.89
379.891	0.86
380.258	0.91
380.625	0.87
380.992	0.9
381.359	0.93
381.726	0.97
382.092	0.9
382.459	0.9
382.826	0.91
383.192	0.96
383.559	0.93
383.925	0.94
384.292	0.94
384.658	0.92
385.025	0.93
385.391	0.97
385.757	0.99
386.123	0.94
386.49	0.95
386.856	0.96
387.222	0.98
387.588	0.97
387.954	0.98
388.32	1
388.686	0.98
389.052	0.96
389.418	1.02
389.784	0.96
390.15	1
390.515	0.93
390.881	1.01
391.247	0.95
391.613	1
391.978	1.01
392.344	1.01
392.709	1
393.075	1.01
393.44	0.98
393.806	0.99
394.171	0.99
394.536	1.01
394.902	0.97
395.267	0.93
395.632	0.91
395.997	0.96
396.362	0.95
396.727	0.97
397.092	0.97
397.457	0.99
397.822	0.94
398.187	0.91
398.552	0.95
398.917	0.97
399.282	0.91
399.646	0.92
400.011	0.9
400.376	0.88
400.74	0.89
401.105	0.9
401.47	0.87
401.834	0.9
402.199	0.87
402.563	0.87
402.927	0.84
403.292	0.88
403.656	0.84
404.02	0.84
404.384	0.87
404.749	0.84
405.113	0.84
405.477	0.83
405.841	0.78
406.205	0.79
406.569	0.78
406.933	0.78
407.296	0.77
407.66	0.78
408.024	0.76
408.388	0.78
408.752	0.78
409.115	0.77
409.479	0.75
409.842	0.76
410.206	0.73
410.569	0.74
410.933	0.78
411.296	0.72
411.66	0.73
412.023	0.7
412.386	0.7
412.749	0.7
413.113	0.7
413.476	0.66
413.839	0.68
414.202	0.66
414.565	0.66
414.928	0.68
415.291	0.67
415.654	0.69
416.017	0.65
416.38	0.66
416.742	0.65
417.105	0.65
417.468	0.63
417.83	0.64
418.193	0.67
418.556	0.65
418.918	0.64
419.281	0.63
419.643	0.63
420.005	0.65
420.368	0.63
420.73	0.63
421.092	0.63
421.455	0.62
421.817	0.61
422.179	0.63
422.541	0.61
422.903	0.62
423.265	0.64
423.627	0.61
423.989	0.6
424.351	0.61
424.713	0.61
425.075	0.58
425.436	0.6
425.798	0.57
426.16	0.61
426.521	0.59
426.883	0.6
427.245	0.6
427.606	0.55
427.967	0.56
428.329	0.59
428.69	0.59
429.052	0.57
429.413	0.58
429.774	0.58
430.135	0.57
430.497	0.57
430.858	0.57
431.219	0.56
431.58	0.58
431.941	0.56
432.302	0.56
432.663	0.53
433.024	0.58
433.384	0.58
433.745	0.54
434.106	0.56
434.467	0.56
434.827	0.58
435.188	0.54
435.548	0.55
435.909	0.56
436.269	0.56
436.63	0.53
436.99	0.54
437.351	0.53
437.711	0.53
438.071	0.52
438.431	0.52
438.792	0.5
439.152	0.51
439.512	0.5
439.872	0.52
440.232	0.52
440.592	0.52
440.952	0.5
441.312	0.51
441.671	0.51
442.031	0.52
442.391	0.5
442.751	0.52
443.11	0.49
443.47	0.49
443.83	0.49
444.189	0.47
444.549	0.49
444.908	0.48
445.267	0.48
445.627	0.47
445.986	0.48
446.345	0.46
446.705	0.46
447.064	0.47
447.423	0.46
447.782	0.47
448.141	0.45
448.5	0.45
448.859	0.46
449.218	0.46
449.577	0.46
449.936	0.45
450.295	0.45
450.653	0.45
451.012	0.45
451.371	0.44
451.729	0.45
452.088	0.44
452.447	0.44
452.805	0.43
453.163	0.43
453.522	0.43
453.88	0.42
454.239	0.42
454.597	0.41
454.955	0.41
455.313	0.41
455.671	0.42
456.029	0.4
456.388	0.4
456.746	0.4
457.104	0.39
457.461	0.37
457.819	0.38
458.177	0.37
458.535	0.37
458.893	0.37
459.25	0.37
459.608	0.37
459.966	0.36
460.323	0.35
460.681	0.34
461.038	0.35
461.396	0.34
461.753	0.34
462.111	0.34
462.468	0.33
462.825	0.33
463.182	0.33
463.54	0.32
463.897	0.32
464.254	0.32
464.611	0.31
464.968	0.31
465.325	0.31
465.682	0.3
466.039	0.31
466.395	0.3
466.752	0.3
467.109	0.29
467.466	0.29
467.822	0.29
468.179	0.28
468.535	0.28
468.892	0.28
469.248	0.27
469.605	0.27
469.961	0.28
470.318	0.28
470.674	0.28
471.03	0.27
471.386	0.26
471.743	0.25
472.099	0.26
472.455	0.25
472.811	0.25
473.167	0.25
473.523	0.24
473.879	0.24
474.235	0.24
474.59	0.24
474.946	0.23
475.302	0.23
475.657	0.23
476.013	0.23
476.369	0.22
476.724	0.23
477.08	0.23
477.435	0.21
477.791	0.22
478.146	0.22
478.501	0.22
478.857	0.21
479.212	0.21
479.567	0.21
479.922	0.2
480.277	0.2
480.632	0.19
480.987	0.2
481.342	0.19
481.697	0.19
482.052	0.18
482.407	0.18
482.762	0.18
483.116	0.18
483.471	0.18
483.826	0.17
484.18	0.17
484.535	0.17
484.89	0.17
485.244	0.17
485.598	0.17
485.953	0.17
486.307	0.17
486.661	0.17
487.016	0.16
487.37	0.16
487.724	0.16
488.078	0.16
488.432	0.16
488.786	0.16
489.14	0.16
489.494	0.15
489.848	0.15
490.202	0.15
490.556	0.15
490.91	0.15
491.263	0.15
491.617	0.14
491.971	0.15
492.324	0.14
492.678	0.15
493.031	0.14
493.385	0.14
493.738	0.14
494.091	0.14
494.445	0.14
494.798	0.14
495.151	0.13
495.504	0.14
495.857	0.13
496.21	0.14
496.564	0.13
496.916	0.14
497.269	0.13
497.622	0.13
497.975	0.13
498.328	0.14
498.681	0.13
499.033	0.13
499.386	0.14
499.739	0.13
500.091	0.13
500.444	0.12
500.796	0.13
501.149	0.12
501.501	0.13
501.854	0.13
502.206	0.13
502.558	0.13
502.91	0.12
503.263	0.12
503.615	0.12
503.967	0.11
504.319	0.12
504.671	0.12
505.023	0.12
505.375	0.11
505.726	0.12
506.078	0.11
506.43	0.12
506.782	0.11
507.133	0.12
507.485	0.11
507.837	0.13
508.188	0.12
508.54	0.12
508.891	0.12
509.243	0.11
509.594	0.11
509.945	0.12
510.296	0.11
510.648	0.12
510.999	0.11
511.35	0.12
511.701	0.11
512.052	0.11
512.403	0.1
512.754	0.1
513.105	0.1
513.456	0.1
513.807	0.1
514.157	0.11
514.508	0.1
514.859	0.1
515.209	0.1
515.56	0.11
515.91	0.1
516.261	0.1
516.611	0.1
516.962	0.11
517.312	0.1
517.662	0.1
518.013	0.1
518.363	0.11
518.713	0.11
519.063	0.11
519.413	0.1
519.763	0.1
520.113	0.1
520.463	0.11
520.813	0.11
521.163	0.11
521.512	0.1
521.862	0.1
522.212	0.11
522.562	0.1
522.911	0.1
523.261	0.11
523.61	0.11
523.96	0.11
524.309	0.11
524.658	0.11
525.008	0.11
525.357	0.11
525.706	0.11
526.056	0.11
526.405	0.11
526.754	0.11
527.103	0.11
527.452	0.11
527.801	0.11
528.15	0.11
528.499	0.11
528.847	0.11
529.196	0.11
529.545	0.11
529.893	0.11
530.242	0.11
530.591	0.11
530.939	0.11
531.288	0.11
531.636	0.11
531.985	0.1
532.333	0.11
532.681	0.11
533.029	0.11
533.378	0.11
533.726	0.11
534.074	0.11
534.422	0.1
534.77	0.12
535.118	0.11
535.466	0.11
535.814	0.11
536.162	0.11
536.509	0.12
536.857	0.11
537.205	0.11
537.552	0.11
537.9	0.11
538.248	0.1
538.595	0.11
538.943	0.1
539.29	0.1
539.637	0.1
539.985	0.1
540.332	0.11
540.679	0.11
541.026	0.11
541.373	0.11
541.721	0.1
542.068	0.11
542.415	0.11
542.762	0.11
543.108	0.1
543.455	0.1
543.802	0.11
544.149	0.1
544.496	0.11
544.842	0.1
545.189	0.1
545.535	0.1
545.882	0.11
546.228	0.1
546.575	0.1
546.921	0.1
547.267	0.1
547.614	0.11
547.96	0.1
548.306	0.1
548.652	0.1
548.998	0.11
549.344	0.1
549.69	0.11
550.036	0.1
550.382	0.1
550.728	0.1
551.074	0.1
551.42	0.11
551.765	0.11
552.111	0.11
552.457	0.11
552.802	0.11
553.148	0.11
553.493	0.11
553.839	0.11
554.184	0.11
554.529	0.1
554.875	0.11
555.22	0.11
555.565	0.12
555.91	0.11
556.255	0.12
556.6	0.11
556.945	0.1
557.29	0.11
557.635	0.11
557.98	0.1
558.325	0.1
558.67	0.1
559.014	0.1
559.359	0.11
559.704	0.1
560.048	0.1
560.393	0.1
560.737	0.1
561.082	0.1
561.426	0.09
561.77	0.1
562.115	0.1
562.459	0.1
562.803	0.1
563.147	0.1
563.491	0.11
563.835	0.1
564.179	0.1
564.523	0.1
564.867	0.1
565.211	0.1
565.555	0.11
565.899	0.1
566.242	0.11
566.586	0.1
566.93	0.1
567.273	0.11
567.617	0.11
567.96	0.11
568.304	0.11
568.647	0.1
568.99	0.11
569.334	0.12
569.677	0.1
570.02	0.12
570.363	0.11
570.706	0.1
571.049	0.11
571.392	0.11
571.735	0.11
572.078	0.12
572.421	0.12
572.764	0.11
573.106	0.12
573.449	0.11
573.792	0.11
574.134	0.11
574.477	0.11
574.819	0.1
575.162	0.1
575.504	0.1
575.847	0.11
576.189	0.11
576.531	0.1
576.873	0.11
577.215	0.11
577.558	0.11
577.9	0.1
578.242	0.11
578.584	0.1
578.926	0.11
579.267	0.1
579.609	0.1
579.951	0.1
580.293	0.1
580.634	0.11
580.976	0.1
581.318	0.1
581.659	0.1
582.001	0.1
582.342	0.1
582.683	0.11
583.025	0.1
583.366	0.1
583.707	0.11
584.049	0.1
584.39	0.11
584.731	0.1
585.072	0.1
585.413	0.11
585.754	0.1
586.095	0.1
586.435	0.11
586.776	0.11
587.117	0.1
587.458	0.1
587.798	0.1
588.139	0.1
588.48	0.1
588.82	0.1
589.161	0.1
589.501	0.1
589.841	0.1
590.182	0.1
590.522	0.09
590.862	0.1
591.202	0.1
591.542	0.1
591.882	0.09
592.222	0.1
592.562	0.1
592.902	0.1
593.242	0.09
593.582	0.1
593.922	0.1
594.261	0.1
594.601	0.1
594.941	0.1
595.28	0.1
595.62	0.11
595.959	0.1
596.299	0.1
596.638	0.1
596.977	0.1
597.317	0.11
597.656	0.1
597.995	0.1
598.334	0.11
598.673	0.1
599.012	0.1
599.351	0.11
599.69	0.1
600.029	0.1
600.368	0.11
600.707	0.11
601.046	0.1
601.384	0.11
601.723	0.1
602.061	0.1
602.4	0.11
602.738	0.11
603.077	0.11
603.415	0.1
603.754	0.1
604.092	0.1
604.43	0.1
604.768	0.11
605.107	0.1
605.445	0.1
605.783	0.1
606.121	0.1
606.459	0.1
606.796	0.1
607.134	0.1
607.472	0.1
607.81	0.11
608.148	0.1
608.485	0.11
608.823	0.11
609.16	0.11
609.498	0.11
609.835	0.11
610.173	0.1
610.51	0.11
610.847	0.11
611.185	0.11
611.522	0.11
611.859	0.12
612.196	0.12
612.533	0.11
612.87	0.12
613.207	0.11
613.544	0.11
613.881	0.11
614.217	0.11
614.554	0.11
614.891	0.12
615.228	0.11
615.564	0.11
615.901	0.11
616.237	0.11
616.574	0.11
616.91	0.12
617.246	0.11
617.583	0.12
617.919	0.12
618.255	0.12
618.591	0.11
618.927	0.11
619.263	0.11
619.599	0.11
619.935	0.11
620.271	0.11
620.607	0.1
620.943	0.1
621.279	0.11
621.614	0.11
621.95	0.11
622.286	0.1
622.621	0.11
622.957	0.11
623.292	0.11
623.627	0.1
623.963	0.1
624.298	0.1
624.633	0.1
624.968	0.1
625.304	0.1
625.639	0.11
625.974	0.1
626.309	0.1
626.644	0.1
626.979	0.11
627.313	0.11
627.648	0.1
627.983	0.11
628.318	0.1
628.652	0.1
628.987	0.1
629.321	0.11
629.656	0.1
629.99	0.1
630.325	0.1
630.659	0.1
630.993	0.1
631.327	0.1
631.662	0.09
631.996	0.1
632.33	0.09
632.664	0.1
632.998	0.08
633.332	0.09
633.666	0.09
633.999	0.09
634.333	0.08
634.667	0.09
635.001	0.08
635.334	0.09
635.668	0.08
636.001	0.09
636.335	0.1
636.668	0.1
637.001	0.08
637.335	0.09
637.668	0.09
638.001	0.08
638.334	0.09
638.668	0.08
639.001	0.09
639.334	0.09
639.667	0.09
639.999	0.09
640.332	0.1
640.665	0.09
640.998	0.09
641.331	0.09
641.663	0.09
641.996	0.09
642.328	0.09
642.661	0.1
642.993	0.09
643.326	0.09
643.658	0.08
643.99	0.09
644.323	0.09
644.655	0.09
644.987	0.09
645.319	0.1
645.651	0.1
645.983	0.09
646.315	0.09
646.647	0.1
646.979	0.11
647.31	0.11
647.642	0.1
647.974	0.09
648.305	0.1
648.637	0.1
648.968	0.1
649.3	0.1
649.631	0.1
649.963	0.1
650.294	0.1
650.625	0.1
650.957	0.1
651.288	0.1
651.619	0.1
651.95	0.1
652.281	0.1
652.612	0.1
652.943	0.1
653.274	0.1
653.604	0.1
653.935	0.1
654.266	0.1
654.596	0.09
654.927	0.1
655.258	0.09
655.588	0.1
655.918	0.1
656.249	0.08
656.579	0.09
656.909	0.1
657.24	0.09
657.57	0.1
657.9	0.09
658.23	0.1
658.56	0.1
658.89	0.1
659.22	0.09
659.55	0.1
659.88	0.09
660.209	0.1
660.539	0.1
660.869	0.1
661.198	0.09
661.528	0.1
661.857	0.1
662.187	0.1
662.516	0.09
662.846	0.1
663.175	0.1
663.504	0.09
663.833	0.09
664.163	0.1
664.492	0.09
664.821	0.1
665.15	0.09
665.479	0.1
665.807	0.09
666.136	0.09
666.465	0.1
666.794	0.09
667.122	0.09
667.451	0.09
667.78	0.09
668.108	0.09
668.437	0.08
668.765	0.1
669.093	0.09
669.422	0.1
669.75	0.09
670.078	0.09
670.406	0.09
670.734	0.09
671.062	0.09
671.39	0.09
671.718	0.09
672.046	0.09
672.374	0.09
672.702	0.09
673.029	0.09
673.357	0.09
673.685	0.09
674.012	0.09
674.34	0.09
674.667	0.09
674.995	0.09
675.322	0.09
675.649	0.08
675.977	0.08
676.304	0.09
676.631	0.09
676.958	0.08
677.285	0.08
677.612	0.08
677.939	0.08
678.266	0.08
678.593	0.07
678.92	0.08
679.246	0.08
679.573	0.08
679.9	0.07
680.226	0.08
680.553	0.06
680.879	0.07
681.206	0.07
681.532	0.07
681.858	0.07
682.184	0.07
682.511	0.07
682.837	0.07
683.163	0.08
683.489	0.07
683.815	0.07
684.141	0.07
684.467	0.07
684.793	0.07
685.118	0.07
685.444	0.08
685.77	0.07
686.095	0.08
686.421	0.08
686.746	0.08
687.072	0.07
687.397	0.07
687.723	0.08
688.048	0.09
688.373	0.07
688.698	0.07
689.023	0.07
689.349	0.07
689.674	0.07
689.999	0.07
690.323	0.06
690.648	0.07
690.973	0.06
691.298	0.06
691.623	0.06
691.947	0.06
692.272	0.06
692.596	0.07
692.921	0.07
693.245	0.06
693.57	0.07
693.894	0.07
694.218	0.07
694.543	0.06
694.867	0.06
695.191	0.06
695.515	0.07
695.839	0.06
696.163	0.06
696.487	0.07
696.811	0.07
697.135	0.07
697.458	0.06
697.782	0.07
698.106	0.07
698.429	0.06
698.753	0.07
699.076	0.07
699.4	0.06
699.723	0.07
700.046	0.06
700.37	0.07
700.693	0.07
701.016	0.07
701.339	0.07
701.662	0.07
701.985	0.07
702.308	0.06
702.631	0.06
702.954	0.07
703.277	0.07
703.599	0.07
703.922	0.06
704.245	0.06
704.567	0.06
704.89	0.06
705.212	0.06
705.535	0.06
705.857	0.05
706.179	0.05
706.502	0.04
706.824	0.05
707.146	0.04
707.468	0.05
707.79	0.05
708.112	0.05
708.434	0.06
708.756	0.05
709.078	0.06
709.399	0.05
709.721	0.05
710.043	0.05
710.364	0.06
710.686	0.06
711.007	0.05
711.329	0.06
711.65	0.05
711.972	0.05
712.293	0.06
712.614	0.06
712.935	0.05
713.256	0.06
713.577	0.07
713.898	0.06
714.219	0.06
714.54	0.06
714.861	0.05
715.182	0.06
715.503	0.06
715.823	0.06
716.144	0.06
716.464	0.06
716.785	0.05
717.105	0.06
717.426	0.06
717.746	0.05
718.066	0.05
718.387	0.05
718.707	0.05
719.027	0.05
719.347	0.04
719.667	0.05
719.987	0.04
720.307	0.05
720.627	0.05
720.947	0.04
721.266	0.05
721.586	0.03
721.906	0.05
722.225	0.04
722.545	0.05
722.864	0.05
723.184	0.05
723.503	0.06
723.823	0.05
724.142	0.05
724.461	0.05
724.78	0.06
725.099	0.05
725.418	0.05
725.737	0.06
726.056	0.05
726.375	0.06
726.694	0.05
727.013	0.05
727.331	0.05
727.65	0.05
727.969	0.05
728.287	0.05
728.606	0.05
