Data from 12-12-AQDScycling_Absorbance__214__00214.txt Node

Date: Tue Dec 12 11:52:27 EST 2023
User: kyuminlee
Spectrometer: FLMS00943
Trigger mode: 0
Integration Time (sec): 1.000000E-1
Scans to average: 1
Electric dark correction enabled: true
Nonlinearity correction enabled: false
Boxcar width: 0
XAxis mode: Wavelengths
Number of Pixels in Spectrum: 2048
>>>>>Begin Spectral Data<<<<<
179.651	0.54
180.037	0.54
180.424	0.54
180.81	-0.04
181.197	0.63
181.583	-0.23
181.97	-0.21
182.356	-0
182.743	-0
183.129	0.27
183.515	0.49
183.901	-2.69
184.288	0.48
184.674	-0
185.06	-1.33
185.446	-0
185.832	-1.67
186.218	0.21
186.604	0.23
186.99	-0
187.376	-0
187.762	0.32
188.148	0.31
188.534	-0.01
188.92	0.08
189.305	-0.01
189.691	0.31
190.077	0.11
190.463	0.15
190.848	0.05
191.234	0.2
191.619	0
192.005	0.02
192.391	0.12
192.776	0.1
193.161	0.16
193.547	0.15
193.932	0.15
194.318	0.05
194.703	0.23
195.088	0.22
195.473	0.22
195.859	0.17
196.244	0.26
196.629	0.16
197.014	0.03
197.399	0.07
197.784	0.32
198.169	0.09
198.554	0.13
198.939	0.12
199.324	0.02
199.709	0.14
200.094	0.01
200.478	0.04
200.863	0.17
201.248	0.01
201.633	0.16
202.017	0.04
202.402	0.28
202.787	0.12
203.171	0.09
203.556	0.19
203.94	0.17
204.325	0.27
204.709	0.22
205.093	0.08
205.478	0.18
205.862	-0.04
206.246	0.31
206.631	0.11
207.015	0.05
207.399	0.17
207.783	0.06
208.167	0.21
208.551	0.23
208.935	0.13
209.319	0.18
209.703	0.19
210.087	0.22
210.471	0.17
210.855	0.17
211.239	0.14
211.623	0.16
212.007	0.17
212.39	0.35
212.774	0.05
213.158	0.07
213.541	0.16
213.925	0.27
214.309	0.23
214.692	0.26
215.076	0.22
215.459	0.23
215.842	0.19
216.226	0.22
216.609	0.24
216.993	0.4
217.376	0.66
217.759	0.16
218.142	0.33
218.525	0.76
218.909	0.32
219.292	0.37
219.675	0.33
220.058	0.37
220.441	0.59
220.824	0.5
221.207	0.5
221.59	0.43
221.973	0.57
222.355	0.65
222.738	0.59
223.121	0.52
223.504	0.59
223.886	0.6
224.269	0.65
224.652	0.64
225.034	0.75
225.417	0.68
225.799	0.82
226.182	0.92
226.564	0.92
226.947	0.85
227.329	0.74
227.711	1
228.094	1.21
228.476	0.96
228.858	0.74
229.24	0.8
229.623	0.86
230.005	0.78
230.387	0.99
230.769	0.89
231.151	0.9
231.533	1.03
231.915	0.99
232.297	0.95
232.679	1.06
233.061	1.07
233.442	0.91
233.824	0.92
234.206	1.14
234.588	1.07
234.969	1.06
235.351	0.98
235.733	1.05
236.114	1.31
236.496	1
236.877	1.17
237.259	0.93
237.64	0.95
238.022	0.98
238.403	0.97
238.784	0.96
239.165	0.92
239.547	0.99
239.928	1.09
240.309	0.96
240.69	1.17
241.071	1.44
241.452	1.2
241.834	1.05
242.215	1.11
242.595	1.06
242.976	1.11
243.357	1.09
243.738	1.07
244.119	1.33
244.5	1.15
244.881	1.12
245.261	1.09
245.642	1.24
246.023	1.05
246.403	1.1
246.784	1.32
247.164	1.37
247.545	1.15
247.925	1.4
248.306	1.21
248.686	1.33
249.067	1.29
249.447	1.23
249.827	1.62
250.207	1.48
250.588	1.5
250.968	1.46
251.348	1.33
251.728	1.39
252.108	1.38
252.488	1.38
252.868	1.34
253.248	1.28
253.628	1.53
254.008	1.33
254.388	1.29
254.768	1.43
255.147	1.37
255.527	1.31
255.907	1.34
256.287	1.33
256.666	1.39
257.046	1.46
257.425	1.43
257.805	1.25
258.184	1.44
258.564	1.39
258.943	1.29
259.323	1.36
259.702	1.41
260.081	1.5
260.461	1.43
260.84	1.47
261.219	1.54
261.598	1.5
261.977	1.4
262.356	1.45
262.736	1.61
263.115	1.54
263.494	1.41
263.873	1.43
264.251	1.4
264.63	1.49
265.009	1.46
265.388	1.4
265.767	1.34
266.145	1.32
266.524	1.39
266.903	1.39
267.281	1.32
267.66	1.53
268.039	1.48
268.417	1.24
268.796	1.43
269.174	1.38
269.552	1.56
269.931	1.6
270.309	1.44
270.687	1.73
271.066	1.38
271.444	1.39
271.822	1.4
272.2	1.41
272.578	1.39
272.956	1.39
273.334	1.33
273.712	1.38
274.09	1.44
274.468	1.33
274.846	1.43
275.224	1.38
275.602	1.34
275.98	1.58
276.357	1.38
276.735	1.44
277.113	1.41
277.49	1.28
277.868	1.26
278.246	1.32
278.623	1.29
279.001	1.33
279.378	1.42
279.756	1.54
280.133	1.53
280.51	1.39
280.888	1.46
281.265	1.32
281.642	1.54
282.019	1.51
282.396	1.52
282.773	1.35
283.151	1.57
283.528	1.56
283.905	1.44
284.282	1.59
284.659	1.64
285.035	1.36
285.412	1.34
285.789	1.53
286.166	1.39
286.543	1.33
286.919	1.38
287.296	1.36
287.673	1.96
288.049	1.47
288.426	1.52
288.802	1.62
289.179	1.43
289.555	1.63
289.932	1.46
290.308	1.39
290.684	1.35
291.061	1.44
291.437	1.65
291.813	1.43
292.189	1.34
292.565	1.32
292.942	1.5
293.318	1.4
293.694	1.49
294.07	1.34
294.446	1.39
294.822	1.59
295.197	1.47
295.573	1.45
295.949	1.44
296.325	1.64
296.701	1.44
297.076	1.54
297.452	1.66
297.828	1.49
298.203	1.59
298.579	1.42
298.954	1.5
299.33	1.46
299.705	1.57
300.081	1.47
300.456	1.65
300.831	1.38
301.206	1.45
301.582	1.48
301.957	1.55
302.332	1.72
302.707	1.44
303.082	1.55
303.457	1.46
303.832	1.55
304.207	1.4
304.582	1.56
304.957	1.44
305.332	1.43
305.707	1.39
306.082	1.55
306.456	1.67
306.831	1.51
307.206	1.75
307.58	1.51
307.955	1.49
308.33	1.63
308.704	1.68
309.079	1.59
309.453	1.69
309.828	1.41
310.202	1.46
310.576	1.43
310.951	1.56
311.325	1.63
311.699	1.58
312.073	1.38
312.447	1.65
312.821	1.36
313.196	1.53
313.57	1.29
313.944	1.48
314.317	1.42
314.691	1.55
315.065	1.48
315.439	1.53
315.813	1.5
316.187	1.43
316.56	1.6
316.934	1.56
317.308	1.51
317.681	1.49
318.055	1.58
318.428	1.44
318.802	1.55
319.175	1.41
319.549	1.5
319.922	1.34
320.295	1.43
320.669	1.76
321.042	1.56
321.415	1.64
321.788	1.55
322.162	1.48
322.535	1.6
322.908	1.62
323.281	1.59
323.654	1.86
324.027	1.4
324.4	1.64
324.773	1.48
325.145	1.58
325.518	1.37
325.891	1.33
326.264	1.58
326.636	1.33
327.009	1.38
327.382	1.47
327.754	1.66
328.127	1.5
328.499	1.49
328.872	1.5
329.244	1.48
329.616	1.41
329.989	1.4
330.361	1.56
330.733	1.48
331.106	1.45
331.478	1.59
331.85	1.46
332.222	1.44
332.594	1.59
332.966	1.58
333.338	1.78
333.71	1.49
334.082	1.65
334.454	1.45
334.826	1.54
335.197	1.55
335.569	1.51
335.941	1.33
336.312	1.51
336.684	1.48
337.056	1.55
337.427	1.67
337.799	1.57
338.17	1.61
338.542	1.55
338.913	1.52
339.284	1.79
339.656	1.56
340.027	1.51
340.398	1.66
340.769	1.54
341.141	1.64
341.512	1.66
341.883	1.71
342.254	1.62
342.625	1.56
342.996	1.46
343.367	1.47
343.738	1.61
344.108	1.46
344.479	1.63
344.85	1.44
345.221	1.58
345.591	1.4
345.962	1.56
346.333	1.45
346.703	1.27
347.074	1.42
347.444	1.28
347.815	1.44
348.185	1.44
348.556	1.32
348.926	1.39
349.296	1.37
349.666	1.49
350.037	1.3
350.407	1.35
350.777	1.27
351.147	1.32
351.517	1.34
351.887	1.31
352.257	1.47
352.627	1.33
352.997	1.38
353.367	1.4
353.737	1.34
354.106	1.39
354.476	1.33
354.846	1.39
355.216	1.42
355.585	1.3
355.955	1.25
356.324	1.35
356.694	1.24
357.063	1.32
357.433	1.18
357.802	1.18
358.171	1.25
358.541	1.24
358.91	1.17
359.279	1.15
359.648	1.09
360.017	1.17
360.387	1.17
360.756	1.07
361.125	1.05
361.494	1.09
361.863	1.02
362.231	1.02
362.6	0.97
362.969	1.02
363.338	0.95
363.707	0.97
364.075	0.93
364.444	0.89
364.813	0.88
365.181	0.84
365.55	0.87
365.918	0.86
366.287	0.85
366.655	0.85
367.024	0.8
367.392	0.78
367.76	0.78
368.128	0.74
368.497	0.78
368.865	0.74
369.233	0.7
369.601	0.72
369.969	0.72
370.337	0.7
370.705	0.69
371.073	0.7
371.441	0.66
371.809	0.64
372.177	0.65
372.544	0.63
372.912	0.64
373.28	0.63
373.647	0.63
374.015	0.62
374.383	0.6
374.75	0.62
375.118	0.57
375.485	0.57
375.853	0.57
376.22	0.54
376.587	0.54
376.955	0.58
377.322	0.54
377.689	0.54
378.056	0.52
378.423	0.53
378.79	0.55
379.157	0.54
379.524	0.52
379.891	0.53
380.258	0.53
380.625	0.5
380.992	0.51
381.359	0.52
381.726	0.51
382.092	0.52
382.459	0.49
382.826	0.49
383.192	0.51
383.559	0.5
383.925	0.52
384.292	0.51
384.658	0.52
385.025	0.51
385.391	0.52
385.757	0.53
386.123	0.5
386.49	0.52
386.856	0.51
387.222	0.5
387.588	0.5
387.954	0.51
388.32	0.52
388.686	0.51
389.052	0.49
389.418	0.5
389.784	0.49
390.15	0.49
390.515	0.49
390.881	0.5
391.247	0.5
391.613	0.52
391.978	0.5
392.344	0.49
392.709	0.5
393.075	0.5
393.44	0.49
393.806	0.49
394.171	0.49
394.536	0.49
394.902	0.5
395.267	0.47
395.632	0.46
395.997	0.49
396.362	0.49
396.727	0.47
397.092	0.48
397.457	0.48
397.822	0.49
398.187	0.47
398.552	0.46
398.917	0.45
399.282	0.45
399.646	0.45
400.011	0.46
400.376	0.44
400.74	0.45
401.105	0.44
401.47	0.43
401.834	0.45
402.199	0.43
402.563	0.43
402.927	0.41
403.292	0.44
403.656	0.42
404.02	0.44
404.384	0.41
404.749	0.4
405.113	0.41
405.477	0.42
405.841	0.39
406.205	0.39
406.569	0.38
406.933	0.39
407.296	0.4
407.66	0.39
408.024	0.38
408.388	0.4
408.752	0.37
409.115	0.37
409.479	0.37
409.842	0.36
410.206	0.36
410.569	0.36
410.933	0.37
411.296	0.38
411.66	0.35
412.023	0.35
412.386	0.36
412.749	0.36
413.113	0.34
413.476	0.33
413.839	0.34
414.202	0.33
414.565	0.33
414.928	0.33
415.291	0.33
415.654	0.33
416.017	0.34
416.38	0.31
416.742	0.31
417.105	0.3
417.468	0.32
417.83	0.32
418.193	0.33
418.556	0.32
418.918	0.31
419.281	0.31
419.643	0.32
420.005	0.31
420.368	0.31
420.73	0.3
421.092	0.3
421.455	0.29
421.817	0.3
422.179	0.29
422.541	0.28
422.903	0.29
423.265	0.3
423.627	0.29
423.989	0.29
424.351	0.28
424.713	0.29
425.075	0.27
425.436	0.28
425.798	0.26
426.16	0.27
426.521	0.29
426.883	0.3
427.245	0.28
427.606	0.27
427.967	0.27
428.329	0.28
428.69	0.28
429.052	0.28
429.413	0.27
429.774	0.28
430.135	0.26
430.497	0.27
430.858	0.26
431.219	0.26
431.58	0.28
431.941	0.26
432.302	0.27
432.663	0.27
433.024	0.28
433.384	0.27
433.745	0.27
434.106	0.26
434.467	0.26
434.827	0.27
435.188	0.27
435.548	0.28
435.909	0.26
436.269	0.27
436.63	0.25
436.99	0.26
437.351	0.26
437.711	0.26
438.071	0.26
438.431	0.25
438.792	0.25
439.152	0.25
439.512	0.25
439.872	0.26
440.232	0.26
440.592	0.26
440.952	0.25
441.312	0.25
441.671	0.25
442.031	0.24
442.391	0.24
442.751	0.24
443.11	0.24
443.47	0.23
443.83	0.23
444.189	0.24
444.549	0.23
444.908	0.24
445.267	0.22
445.627	0.23
445.986	0.23
446.345	0.22
446.705	0.22
447.064	0.23
447.423	0.23
447.782	0.22
448.141	0.22
448.5	0.2
448.859	0.22
449.218	0.22
449.577	0.22
449.936	0.22
450.295	0.23
450.653	0.21
451.012	0.22
451.371	0.22
451.729	0.22
452.088	0.22
452.447	0.22
452.805	0.23
453.163	0.22
453.522	0.22
453.88	0.21
454.239	0.21
454.597	0.2
454.955	0.2
455.313	0.21
455.671	0.21
456.029	0.19
456.388	0.2
456.746	0.2
457.104	0.19
457.461	0.18
457.819	0.19
458.177	0.18
458.535	0.19
458.893	0.18
459.25	0.18
459.608	0.18
459.966	0.17
460.323	0.17
460.681	0.17
461.038	0.17
461.396	0.17
461.753	0.17
462.111	0.16
462.468	0.16
462.825	0.16
463.182	0.16
463.54	0.16
463.897	0.17
464.254	0.17
464.611	0.16
464.968	0.16
465.325	0.16
465.682	0.15
466.039	0.15
466.395	0.15
466.752	0.15
467.109	0.15
467.466	0.15
467.822	0.16
468.179	0.14
468.535	0.15
468.892	0.14
469.248	0.14
469.605	0.14
469.961	0.14
470.318	0.15
470.674	0.15
471.03	0.14
471.386	0.14
471.743	0.14
472.099	0.13
472.455	0.14
472.811	0.12
473.167	0.13
473.523	0.13
473.879	0.12
474.235	0.12
474.59	0.12
474.946	0.11
475.302	0.12
475.657	0.11
476.013	0.11
476.369	0.12
476.724	0.12
477.08	0.12
477.435	0.11
477.791	0.12
478.146	0.12
478.501	0.11
478.857	0.11
479.212	0.11
479.567	0.11
479.922	0.11
480.277	0.11
480.632	0.11
480.987	0.11
481.342	0.11
481.697	0.1
482.052	0.1
482.407	0.11
482.762	0.1
483.116	0.1
483.471	0.1
483.826	0.1
484.18	0.09
484.535	0.09
484.89	0.09
485.244	0.09
485.598	0.1
485.953	0.09
486.307	0.09
486.661	0.1
487.016	0.09
487.37	0.1
487.724	0.09
488.078	0.09
488.432	0.09
488.786	0.09
489.14	0.09
489.494	0.09
489.848	0.08
490.202	0.09
490.556	0.08
490.91	0.08
491.263	0.08
491.617	0.08
491.971	0.09
492.324	0.09
492.678	0.09
493.031	0.09
493.385	0.08
493.738	0.08
494.091	0.08
494.445	0.08
494.798	0.08
495.151	0.08
495.504	0.08
495.857	0.08
496.21	0.08
496.564	0.07
496.916	0.08
497.269	0.07
497.622	0.08
497.975	0.08
498.328	0.08
498.681	0.07
499.033	0.08
499.386	0.08
499.739	0.07
500.091	0.07
500.444	0.08
500.796	0.07
501.149	0.07
501.501	0.07
501.854	0.07
502.206	0.07
502.558	0.08
502.91	0.08
503.263	0.07
503.615	0.07
503.967	0.07
504.319	0.08
504.671	0.07
505.023	0.07
505.375	0.07
505.726	0.07
506.078	0.07
506.43	0.06
506.782	0.06
507.133	0.06
507.485	0.07
507.837	0.07
508.188	0.07
508.54	0.07
508.891	0.07
509.243	0.07
509.594	0.07
509.945	0.07
510.296	0.06
510.648	0.07
510.999	0.06
511.35	0.07
511.701	0.06
512.052	0.07
512.403	0.07
512.754	0.06
513.105	0.06
513.456	0.06
513.807	0.06
514.157	0.07
514.508	0.06
514.859	0.06
515.209	0.06
515.56	0.06
515.91	0.05
516.261	0.06
516.611	0.05
516.962	0.06
517.312	0.06
517.662	0.06
518.013	0.05
518.363	0.06
518.713	0.06
519.063	0.06
519.413	0.06
519.763	0.06
520.113	0.06
520.463	0.06
520.813	0.07
521.163	0.07
521.512	0.06
521.862	0.06
522.212	0.07
522.562	0.06
522.911	0.06
523.261	0.06
523.61	0.06
523.96	0.06
524.309	0.06
524.658	0.06
525.008	0.06
525.357	0.06
525.706	0.06
526.056	0.06
526.405	0.06
526.754	0.06
527.103	0.05
527.452	0.06
527.801	0.06
528.15	0.06
528.499	0.06
528.847	0.06
529.196	0.07
529.545	0.07
529.893	0.07
530.242	0.07
530.591	0.07
530.939	0.07
531.288	0.07
531.636	0.07
531.985	0.07
532.333	0.07
532.681	0.07
533.029	0.07
533.378	0.07
533.726	0.07
534.074	0.07
534.422	0.06
534.77	0.07
535.118	0.07
535.466	0.07
535.814	0.06
536.162	0.07
536.509	0.07
536.857	0.07
537.205	0.07
537.552	0.07
537.9	0.06
538.248	0.06
538.595	0.07
538.943	0.07
539.29	0.06
539.637	0.06
539.985	0.07
540.332	0.06
540.679	0.06
541.026	0.05
541.373	0.06
541.721	0.05
542.068	0.06
542.415	0.06
542.762	0.06
543.108	0.05
543.455	0.05
543.802	0.04
544.149	0.05
544.496	0.05
544.842	0.05
545.189	0.05
545.535	0.05
545.882	0.05
546.228	0.05
546.575	0.04
546.921	0.04
547.267	0.05
547.614	0.04
547.96	0.05
548.306	0.05
548.652	0.05
548.998	0.06
549.344	0.05
549.69	0.05
550.036	0.05
550.382	0.05
550.728	0.05
551.074	0.05
551.42	0.06
551.765	0.06
552.111	0.06
552.457	0.06
552.802	0.06
553.148	0.05
553.493	0.06
553.839	0.06
554.184	0.06
554.529	0.05
554.875	0.06
555.22	0.06
555.565	0.06
555.91	0.05
556.255	0.07
556.6	0.06
556.945	0.05
557.29	0.06
557.635	0.06
557.98	0.05
558.325	0.05
558.67	0.06
559.014	0.05
559.359	0.06
559.704	0.06
560.048	0.05
560.393	0.06
560.737	0.05
561.082	0.05
561.426	0.05
561.77	0.05
562.115	0.04
562.459	0.05
562.803	0.04
563.147	0.05
563.491	0.06
563.835	0.05
564.179	0.05
564.523	0.05
564.867	0.05
565.211	0.05
565.555	0.06
565.899	0.06
566.242	0.06
566.586	0.04
566.93	0.05
567.273	0.06
567.617	0.05
567.96	0.05
568.304	0.06
568.647	0.06
568.99	0.06
569.334	0.06
569.677	0.06
570.02	0.06
570.363	0.06
570.706	0.05
571.049	0.06
571.392	0.06
571.735	0.05
572.078	0.05
572.421	0.06
572.764	0.06
573.106	0.05
573.449	0.05
573.792	0.05
574.134	0.05
574.477	0.06
574.819	0.05
575.162	0.05
575.504	0.05
575.847	0.05
576.189	0.06
576.531	0.06
576.873	0.05
577.215	0.05
577.558	0.06
577.9	0.05
578.242	0.06
578.584	0.06
578.926	0.05
579.267	0.05
579.609	0.06
579.951	0.05
580.293	0.05
580.634	0.05
580.976	0.06
581.318	0.05
581.659	0.05
582.001	0.05
582.342	0.04
582.683	0.06
583.025	0.04
583.366	0.05
583.707	0.05
584.049	0.05
584.39	0.05
584.731	0.04
585.072	0.05
585.413	0.06
585.754	0.05
586.095	0.05
586.435	0.06
586.776	0.06
587.117	0.05
587.458	0.05
587.798	0.05
588.139	0.06
588.48	0.05
588.82	0.05
589.161	0.04
589.501	0.05
589.841	0.05
590.182	0.05
590.522	0.04
590.862	0.06
591.202	0.05
591.542	0.05
591.882	0.05
592.222	0.05
592.562	0.05
592.902	0.05
593.242	0.04
593.582	0.06
593.922	0.05
594.261	0.05
594.601	0.05
594.941	0.06
595.28	0.05
595.62	0.05
595.959	0.05
596.299	0.05
596.638	0.05
596.977	0.05
597.317	0.05
597.656	0.05
597.995	0.05
598.334	0.06
598.673	0.05
599.012	0.04
599.351	0.05
599.69	0.04
600.029	0.05
600.368	0.05
600.707	0.05
601.046	0.05
601.384	0.06
601.723	0.05
602.061	0.04
602.4	0.06
602.738	0.05
603.077	0.05
603.415	0.05
603.754	0.05
604.092	0.05
604.43	0.05
604.768	0.06
605.107	0.05
605.445	0.04
605.783	0.05
606.121	0.05
606.459	0.05
606.796	0.05
607.134	0.04
607.472	0.05
607.81	0.05
608.148	0.05
608.485	0.06
608.823	0.05
609.16	0.05
609.498	0.05
609.835	0.05
610.173	0.05
610.51	0.05
610.847	0.06
611.185	0.06
611.522	0.06
611.859	0.06
612.196	0.05
612.533	0.06
612.87	0.06
613.207	0.06
613.544	0.06
613.881	0.06
614.217	0.06
614.554	0.06
614.891	0.06
615.228	0.06
615.564	0.06
615.901	0.06
616.237	0.06
616.574	0.07
616.91	0.07
617.246	0.06
617.583	0.06
617.919	0.07
618.255	0.07
618.591	0.06
618.927	0.07
619.263	0.08
619.599	0.07
619.935	0.07
620.271	0.07
620.607	0.06
620.943	0.06
621.279	0.07
621.614	0.07
621.95	0.07
622.286	0.06
622.621	0.06
622.957	0.05
623.292	0.05
623.627	0.05
623.963	0.06
624.298	0.05
624.633	0.05
624.968	0.05
625.304	0.05
625.639	0.05
625.974	0.06
626.309	0.05
626.644	0.05
626.979	0.05
627.313	0.05
627.648	0.05
627.983	0.05
628.318	0.05
628.652	0.04
628.987	0.05
629.321	0.05
629.656	0.04
629.99	0.05
630.325	0.06
630.659	0.06
630.993	0.05
631.327	0.05
631.662	0.05
631.996	0.05
632.33	0.05
632.664	0.05
632.998	0.05
633.332	0.05
633.666	0.05
633.999	0.05
634.333	0.05
634.667	0.05
635.001	0.05
635.334	0.05
635.668	0.04
636.001	0.04
636.335	0.05
636.668	0.05
637.001	0.04
637.335	0.04
637.668	0.04
638.001	0.04
638.334	0.04
638.668	0.04
639.001	0.05
639.334	0.05
639.667	0.04
639.999	0.04
640.332	0.04
640.665	0.04
640.998	0.04
641.331	0.04
641.663	0.04
641.996	0.04
642.328	0.05
642.661	0.05
642.993	0.04
643.326	0.04
643.658	0.04
643.99	0.04
644.323	0.04
644.655	0.04
644.987	0.05
645.319	0.05
645.651	0.05
645.983	0.05
646.315	0.05
646.647	0.05
646.979	0.06
647.31	0.05
647.642	0.05
647.974	0.05
648.305	0.06
648.637	0.06
648.968	0.06
649.3	0.06
649.631	0.06
649.963	0.06
650.294	0.06
650.625	0.05
650.957	0.06
651.288	0.06
651.619	0.06
651.95	0.06
652.281	0.06
652.612	0.06
652.943	0.06
653.274	0.06
653.604	0.05
653.935	0.05
654.266	0.06
654.596	0.05
654.927	0.05
655.258	0.06
655.588	0.06
655.918	0.05
656.249	0.04
656.579	0.05
656.909	0.06
657.24	0.05
657.57	0.06
657.9	0.05
658.23	0.05
658.56	0.06
658.89	0.06
659.22	0.06
659.55	0.06
659.88	0.06
660.209	0.06
660.539	0.07
660.869	0.06
661.198	0.07
661.528	0.06
661.857	0.07
662.187	0.06
662.516	0.06
662.846	0.06
663.175	0.06
663.504	0.06
663.833	0.06
664.163	0.06
664.492	0.06
664.821	0.06
665.15	0.05
665.479	0.06
665.807	0.05
666.136	0.05
666.465	0.05
666.794	0.05
667.122	0.05
667.451	0.05
667.78	0.05
668.108	0.05
668.437	0.05
668.765	0.05
669.093	0.06
669.422	0.06
669.75	0.05
670.078	0.06
670.406	0.05
670.734	0.06
671.062	0.06
671.39	0.06
671.718	0.06
672.046	0.06
672.374	0.05
672.702	0.06
673.029	0.06
673.357	0.05
673.685	0.07
674.012	0.05
674.34	0.06
674.667	0.06
674.995	0.05
675.322	0.06
675.649	0.05
675.977	0.06
676.304	0.06
676.631	0.05
676.958	0.05
677.285	0.05
677.612	0.05
677.939	0.04
678.266	0.05
678.593	0.05
678.92	0.05
679.246	0.05
679.573	0.04
679.9	0.04
680.226	0.05
680.553	0.04
680.879	0.05
681.206	0.05
681.532	0.04
681.858	0.04
682.184	0.04
682.511	0.05
682.837	0.04
683.163	0.05
683.489	0.04
683.815	0.05
684.141	0.05
684.467	0.05
684.793	0.04
685.118	0.05
685.444	0.05
685.77	0.05
686.095	0.05
686.421	0.05
686.746	0.05
687.072	0.05
687.397	0.05
687.723	0.06
688.048	0.06
688.373	0.05
688.698	0.06
689.023	0.05
689.349	0.06
689.674	0.05
689.999	0.05
690.323	0.04
690.648	0.04
690.973	0.04
691.298	0.04
691.623	0.04
691.947	0.04
692.272	0.04
692.596	0.04
692.921	0.05
693.245	0.04
693.57	0.05
693.894	0.05
694.218	0.04
694.543	0.04
694.867	0.04
695.191	0.04
695.515	0.04
695.839	0.03
696.163	0.04
696.487	0.05
696.811	0.05
697.135	0.05
697.458	0.04
697.782	0.05
698.106	0.04
698.429	0.04
698.753	0.04
699.076	0.05
699.4	0.04
699.723	0.04
700.046	0.04
700.37	0.05
700.693	0.05
701.016	0.04
701.339	0.05
701.662	0.05
701.985	0.05
702.308	0.04
702.631	0.04
702.954	0.05
703.277	0.04
703.599	0.05
703.922	0.04
704.245	0.04
704.567	0.04
704.89	0.05
705.212	0.04
705.535	0.04
705.857	0.04
706.179	0.04
706.502	0.04
706.824	0.04
707.146	0.04
707.468	0.04
707.79	0.05
708.112	0.05
708.434	0.04
708.756	0.04
709.078	0.04
709.399	0.04
709.721	0.04
710.043	0.05
710.364	0.04
710.686	0.04
711.007	0.05
711.329	0.05
711.65	0.04
711.972	0.04
712.293	0.05
712.614	0.05
712.935	0.04
713.256	0.04
713.577	0.05
713.898	0.04
714.219	0.04
714.54	0.03
714.861	0.03
715.182	0.04
715.503	0.03
715.823	0.04
716.144	0.03
716.464	0.04
716.785	0.03
717.105	0.03
717.426	0.04
717.746	0.03
718.066	0.03
718.387	0.03
718.707	0.03
719.027	0.04
719.347	0.02
719.667	0.03
719.987	0.02
720.307	0.02
720.627	0.03
720.947	0.02
721.266	0.03
721.586	0.01
721.906	0.02
722.225	0.02
722.545	0.03
