Data from 12-12-AQDScycling_Absorbance__623__00623.txt Node

Date: Tue Dec 12 13:32:29 EST 2023
User: kyuminlee
Spectrometer: FLMS00943
Trigger mode: 0
Integration Time (sec): 1.000000E-1
Scans to average: 1
Electric dark correction enabled: true
Nonlinearity correction enabled: false
Boxcar width: 0
XAxis mode: Wavelengths
Number of Pixels in Spectrum: 2048
>>>>>Begin Spectral Data<<<<<
179.651	-0
180.037	-0
180.424	-0
180.81	0.17
181.197	0.16
181.583	-0
181.97	-0.24
182.356	0.75
182.743	-0
183.129	1.07
183.515	-0
183.901	-1.83
184.288	0.55
184.674	0.59
185.06	-0
185.446	-0
185.832	-1.53
186.218	0.33
186.604	-0
186.99	-0
187.376	-0
187.762	-0.36
188.148	0.16
188.534	0
188.92	0.11
189.305	0.16
189.691	0.19
190.077	0.2
190.463	0.13
190.848	0.03
191.234	0.03
191.619	0.04
192.005	0.18
192.391	0.25
192.776	0.15
193.161	0.08
193.547	0.08
193.932	-0.03
194.318	0.06
194.703	0.09
195.088	0.27
195.473	0.06
195.859	0.14
196.244	0.29
196.629	0.05
197.014	0.17
197.399	0.29
197.784	0.02
198.169	0.15
198.554	0.1
198.939	0.08
199.324	0.07
199.709	0
200.094	0.11
200.478	0.09
200.863	0.19
201.248	0.03
201.633	0.11
202.017	0.05
202.402	0.16
202.787	-0.04
203.171	0.32
203.556	0.21
203.94	0.2
204.325	0.16
204.709	0.25
205.093	0.23
205.478	0.18
205.862	0.1
206.246	0.29
206.631	0.12
207.015	0.1
207.399	0.18
207.783	0.11
208.167	0.16
208.551	0.27
208.935	0.15
209.319	0.22
209.703	0.19
210.087	0.21
210.471	0.18
210.855	0.13
211.239	0.16
211.623	0.17
212.007	0.36
212.39	0.28
212.774	0.08
213.158	0.09
213.541	0.27
213.925	0.2
214.309	0.31
214.692	0.36
215.076	0.29
215.459	0.23
215.842	0.21
216.226	0.23
216.609	0.31
216.993	0.17
217.376	0.48
217.759	0.09
218.142	0.3
218.525	0.65
218.909	0.34
219.292	0.31
219.675	0.47
220.058	0.63
220.441	0.49
220.824	0.57
221.207	0.58
221.59	0.44
221.973	0.47
222.355	0.66
222.738	0.6
223.121	0.57
223.504	0.64
223.886	0.75
224.269	0.7
224.652	0.62
225.034	0.73
225.417	0.72
225.799	0.77
226.182	0.95
226.564	0.78
226.947	0.71
227.329	0.81
227.711	0.99
228.094	1.04
228.476	0.95
228.858	0.84
229.24	0.72
229.623	0.76
230.005	0.85
230.387	0.95
230.769	0.75
231.151	0.94
231.533	0.91
231.915	0.88
232.297	1.02
232.679	0.95
233.061	1.1
233.442	1.01
233.824	1
234.206	1.13
234.588	0.98
234.969	1.15
235.351	1.15
235.733	0.97
236.114	1.23
236.496	1.07
236.877	1.02
237.259	0.96
237.64	1.19
238.022	1.06
238.403	0.94
238.784	1.07
239.165	0.98
239.547	1.06
239.928	1.12
240.309	1.29
240.69	1.08
241.071	1.21
241.452	1.02
241.834	1.04
242.215	1.1
242.595	1.02
242.976	1.16
243.357	1.07
243.738	1.11
244.119	1.37
244.5	1.1
244.881	1.27
245.261	1.1
245.642	1.12
246.023	1.16
246.403	1.16
246.784	1.27
247.164	1.38
247.545	1.24
247.925	1.15
248.306	1.25
248.686	1.33
249.067	1.22
249.447	1.4
249.827	1.45
250.207	1.4
250.588	1.22
250.968	1.37
251.348	1.37
251.728	1.36
252.108	1.5
252.488	1.36
252.868	1.48
253.248	1.35
253.628	1.46
254.008	1.54
254.388	1.27
254.768	1.23
255.147	1.4
255.527	1.49
255.907	1.36
256.287	1.44
256.666	1.54
257.046	1.62
257.425	1.44
257.805	1.4
258.184	1.34
258.564	1.41
258.943	1.45
259.323	1.45
259.702	1.42
260.081	1.42
260.461	1.59
260.84	1.46
261.219	1.61
261.598	1.42
261.977	1.53
262.356	1.46
262.736	1.41
263.115	1.67
263.494	1.39
263.873	1.52
264.251	1.42
264.63	1.32
265.009	1.39
265.388	1.42
265.767	1.31
266.145	1.4
266.524	1.43
266.903	1.39
267.281	1.42
267.66	1.58
268.039	1.42
268.417	1.53
268.796	1.35
269.174	1.37
269.552	1.35
269.931	1.49
270.309	1.48
270.687	1.37
271.066	1.59
271.444	1.33
271.822	1.61
272.2	1.42
272.578	1.33
272.956	1.35
273.334	1.3
273.712	1.6
274.09	1.35
274.468	1.47
274.846	1.32
275.224	1.45
275.602	1.46
275.98	1.45
276.357	1.49
276.735	1.5
277.113	1.4
277.49	1.36
277.868	1.25
278.246	1.45
278.623	1.34
279.001	1.46
279.378	1.48
279.756	1.53
280.133	1.6
280.51	1.44
280.888	1.45
281.265	1.35
281.642	1.49
282.019	1.43
282.396	1.55
282.773	1.59
283.151	1.67
283.528	1.42
283.905	1.5
284.282	1.5
284.659	1.5
285.035	1.33
285.412	1.35
285.789	1.53
286.166	1.5
286.543	1.54
286.919	1.6
287.296	1.27
287.673	1.62
288.049	1.41
288.426	1.58
288.802	1.37
289.179	1.49
289.555	1.54
289.932	1.41
290.308	1.33
290.684	1.41
291.061	1.43
291.437	1.5
291.813	1.43
292.189	1.23
292.565	1.25
292.942	1.27
293.318	1.34
293.694	1.44
294.07	1.28
294.446	1.42
294.822	1.51
295.197	1.44
295.573	1.47
295.949	1.42
296.325	1.57
296.701	1.52
297.076	1.49
297.452	1.47
297.828	1.38
298.203	1.56
298.579	1.32
298.954	1.37
299.33	1.3
299.705	1.35
300.081	1.44
300.456	1.37
300.831	1.33
301.206	1.28
301.582	1.38
301.957	1.32
302.332	1.41
302.707	1.23
303.082	1.23
303.457	1.19
303.832	1.18
304.207	1.14
304.582	1.19
304.957	1.21
305.332	1.23
305.707	1.14
306.082	1.18
306.456	1.23
306.831	1.11
307.206	1.14
307.58	1.1
307.955	1.09
308.33	1.1
308.704	1.07
309.079	1.07
309.453	1.08
309.828	1.05
310.202	0.99
310.576	0.99
310.951	1.05
311.325	0.97
311.699	0.96
312.073	0.94
312.447	0.97
312.821	0.94
313.196	1
313.57	0.94
313.944	0.92
314.317	0.91
314.691	0.93
315.065	0.94
315.439	0.92
315.813	0.91
316.187	0.92
316.56	0.97
316.934	0.88
317.308	0.9
317.681	0.88
318.055	0.92
318.428	0.89
318.802	0.91
319.175	0.87
319.549	0.87
319.922	0.87
320.295	0.88
320.669	0.93
321.042	0.92
321.415	0.93
321.788	0.87
322.162	0.84
322.535	0.88
322.908	0.87
323.281	0.89
323.654	0.89
324.027	0.83
324.4	0.89
324.773	0.89
325.145	0.9
325.518	0.84
325.891	0.87
326.264	0.89
326.636	0.86
327.009	0.87
327.382	0.89
327.754	0.89
328.127	0.89
328.499	0.94
328.872	0.89
329.244	0.89
329.616	0.86
329.989	0.89
330.361	0.91
330.733	0.93
331.106	0.9
331.478	0.94
331.85	0.92
332.222	0.92
332.594	0.93
332.966	0.97
333.338	1
333.71	0.94
334.082	1
334.454	0.92
334.826	0.96
335.197	1
335.569	0.98
335.941	0.97
336.312	1.02
336.684	0.98
337.056	0.99
337.427	1
337.799	1.04
338.17	1.03
338.542	1.03
338.913	1.06
339.284	1.08
339.656	1.07
340.027	1.07
340.398	1.06
340.769	1.04
341.141	1.19
341.512	1.07
341.883	1.07
342.254	1.1
342.625	1.12
342.996	1.11
343.367	1.12
343.738	1.13
344.108	1.07
344.479	1.12
344.85	1.06
345.221	1.13
345.591	1.1
345.962	1.18
346.333	1.14
346.703	1.03
347.074	1.07
347.444	1.14
347.815	1.12
348.185	1.17
348.556	1.2
348.926	1.19
349.296	1.23
349.666	1.15
350.037	1.08
350.407	1.11
350.777	1.22
351.147	1.23
351.517	1.24
351.887	1.36
352.257	1.31
352.627	1.21
352.997	1.26
353.367	1.29
353.737	1.32
354.106	1.36
354.476	1.29
354.846	1.45
355.216	1.58
355.585	1.46
355.955	1.38
356.324	1.44
356.694	1.34
357.063	1.41
357.433	1.35
357.802	1.46
358.171	1.48
358.541	1.37
358.91	1.53
359.279	1.55
359.648	1.35
360.017	1.42
360.387	1.48
360.756	1.38
361.125	1.62
361.494	1.79
361.863	1.53
362.231	1.5
362.6	1.53
362.969	1.62
363.338	1.48
363.707	1.63
364.075	1.58
364.444	1.36
364.813	1.46
365.181	1.48
365.55	1.44
365.918	1.77
366.287	1.53
366.655	1.64
367.024	1.51
367.392	1.58
367.76	1.5
368.128	1.68
368.497	1.49
368.865	1.53
369.233	1.49
369.601	1.47
369.969	1.54
370.337	1.55
370.705	1.49
371.073	1.51
371.441	1.51
371.809	1.5
372.177	1.57
372.544	1.56
372.912	1.65
373.28	1.63
373.647	1.5
374.015	1.69
374.383	1.71
374.75	1.7
375.118	1.64
375.485	1.62
375.853	1.62
376.22	1.57
376.587	1.6
376.955	1.56
377.322	1.54
377.689	1.65
378.056	1.55
378.423	1.45
378.79	1.49
379.157	1.61
379.524	1.46
379.891	1.41
380.258	1.63
380.625	1.62
380.992	1.57
381.359	1.5
381.726	1.65
382.092	1.52
382.459	1.65
382.826	1.63
383.192	1.56
383.559	1.66
383.925	1.64
384.292	1.44
384.658	1.68
385.025	1.55
385.391	1.69
385.757	1.72
386.123	1.68
386.49	1.61
386.856	1.62
387.222	1.62
387.588	1.6
387.954	1.54
388.32	1.6
388.686	1.69
389.052	1.43
389.418	1.66
389.784	1.59
390.15	1.63
390.515	1.42
390.881	1.72
391.247	1.42
391.613	1.71
391.978	1.58
392.344	1.67
392.709	1.57
393.075	1.56
393.44	1.68
393.806	1.64
394.171	1.49
394.536	1.49
394.902	1.55
395.267	1.4
395.632	1.52
395.997	1.52
396.362	1.51
396.727	1.68
397.092	1.48
397.457	1.72
397.822	1.62
398.187	1.72
398.552	1.46
398.917	1.53
399.282	1.53
399.646	1.47
400.011	1.7
400.376	1.43
400.74	1.43
401.105	1.55
401.47	1.45
401.834	1.63
402.199	1.49
402.563	1.49
402.927	1.57
403.292	1.64
403.656	1.52
404.02	1.59
404.384	1.55
404.749	1.6
405.113	1.63
405.477	1.65
405.841	1.61
406.205	1.51
406.569	1.5
406.933	1.42
407.296	1.66
407.66	1.57
408.024	1.64
408.388	1.48
408.752	1.66
409.115	1.6
409.479	1.58
409.842	1.71
410.206	1.57
410.569	1.6
410.933	1.57
411.296	1.43
411.66	1.41
412.023	1.52
412.386	1.6
412.749	1.5
413.113	1.64
413.476	1.38
413.839	1.46
414.202	1.51
414.565	1.48
414.928	1.41
415.291	1.42
415.654	1.44
416.017	1.53
416.38	1.42
416.742	1.54
417.105	1.47
417.468	1.53
417.83	1.4
418.193	1.55
418.556	1.34
418.918	1.37
419.281	1.56
419.643	1.53
420.005	1.49
420.368	1.47
420.73	1.42
421.092	1.69
421.455	1.66
421.817	1.4
422.179	1.53
422.541	1.65
422.903	1.67
423.265	1.69
423.627	1.52
423.989	1.45
424.351	1.59
424.713	1.56
425.075	1.47
425.436	1.5
425.798	1.56
426.16	1.54
426.521	1.45
426.883	1.46
427.245	1.52
427.606	1.5
427.967	1.34
428.329	1.53
428.69	1.6
429.052	1.4
429.413	1.53
429.774	1.53
430.135	1.51
430.497	1.55
430.858	1.41
431.219	1.53
431.58	1.44
431.941	1.53
432.302	1.52
432.663	1.39
433.024	1.5
433.384	1.57
433.745	1.45
434.106	1.5
434.467	1.58
434.827	1.53
435.188	1.52
435.548	1.55
435.909	1.46
436.269	1.56
436.63	1.57
436.99	1.49
437.351	1.39
437.711	1.45
438.071	1.37
438.431	1.41
438.792	1.43
439.152	1.44
439.512	1.43
439.872	1.43
440.232	1.44
440.592	1.48
440.952	1.4
441.312	1.42
441.671	1.37
442.031	1.43
442.391	1.39
442.751	1.43
443.11	1.49
443.47	1.35
443.83	1.33
444.189	1.34
444.549	1.35
444.908	1.36
445.267	1.39
445.627	1.32
445.986	1.3
446.345	1.34
446.705	1.33
447.064	1.35
447.423	1.31
447.782	1.34
448.141	1.28
448.5	1.26
448.859	1.3
449.218	1.28
449.577	1.27
449.936	1.26
450.295	1.27
450.653	1.27
451.012	1.26
451.371	1.25
451.729	1.23
452.088	1.23
452.447	1.29
452.805	1.27
453.163	1.21
453.522	1.18
453.88	1.19
454.239	1.19
454.597	1.15
454.955	1.16
455.313	1.12
455.671	1.13
456.029	1.16
456.388	1.11
456.746	1.1
457.104	1.09
457.461	1.06
457.819	1.04
458.177	1.05
458.535	1.03
458.893	1.03
459.25	1.01
459.608	1.01
459.966	1
460.323	0.98
460.681	0.95
461.038	0.94
461.396	0.93
461.753	0.91
462.111	0.92
462.468	0.9
462.825	0.87
463.182	0.87
463.54	0.86
463.897	0.87
464.254	0.83
464.611	0.83
464.968	0.8
465.325	0.81
465.682	0.8
466.039	0.77
466.395	0.77
466.752	0.76
467.109	0.75
467.466	0.73
467.822	0.73
468.179	0.7
468.535	0.7
468.892	0.69
469.248	0.68
469.605	0.67
469.961	0.66
470.318	0.66
470.674	0.64
471.03	0.63
471.386	0.62
471.743	0.61
472.099	0.6
472.455	0.58
472.811	0.58
473.167	0.57
473.523	0.56
473.879	0.56
474.235	0.54
474.59	0.53
474.946	0.52
475.302	0.51
475.657	0.5
476.013	0.5
476.369	0.49
476.724	0.48
477.08	0.47
477.435	0.46
477.791	0.45
478.146	0.45
478.501	0.44
478.857	0.44
479.212	0.43
479.567	0.42
479.922	0.39
480.277	0.4
480.632	0.39
480.987	0.39
481.342	0.38
481.697	0.37
482.052	0.36
482.407	0.36
482.762	0.35
483.116	0.34
483.471	0.33
483.826	0.33
484.18	0.32
484.535	0.32
484.89	0.31
485.244	0.31
485.598	0.31
485.953	0.29
486.307	0.29
486.661	0.29
487.016	0.28
487.37	0.28
487.724	0.28
488.078	0.27
488.432	0.26
488.786	0.26
489.14	0.25
489.494	0.24
489.848	0.25
490.202	0.24
490.556	0.24
490.91	0.23
491.263	0.23
491.617	0.23
491.971	0.22
492.324	0.21
492.678	0.22
493.031	0.22
493.385	0.21
493.738	0.21
494.091	0.2
494.445	0.2
494.798	0.19
495.151	0.2
495.504	0.19
495.857	0.19
496.21	0.18
496.564	0.18
496.916	0.19
497.269	0.17
497.622	0.17
497.975	0.17
498.328	0.17
498.681	0.16
499.033	0.16
499.386	0.16
499.739	0.16
500.091	0.15
500.444	0.15
500.796	0.15
501.149	0.15
501.501	0.15
501.854	0.15
502.206	0.15
502.558	0.14
502.91	0.14
503.263	0.14
503.615	0.14
503.967	0.14
504.319	0.14
504.671	0.14
505.023	0.13
505.375	0.13
505.726	0.13
506.078	0.13
506.43	0.13
506.782	0.12
507.133	0.13
507.485	0.13
507.837	0.13
508.188	0.13
508.54	0.12
508.891	0.13
509.243	0.12
509.594	0.12
509.945	0.12
510.296	0.12
510.648	0.12
510.999	0.12
511.35	0.12
511.701	0.12
512.052	0.12
512.403	0.12
512.754	0.11
513.105	0.11
513.456	0.11
513.807	0.11
514.157	0.12
514.508	0.11
514.859	0.11
515.209	0.11
515.56	0.11
515.91	0.11
516.261	0.11
516.611	0.1
516.962	0.11
517.312	0.11
517.662	0.11
518.013	0.1
518.363	0.11
518.713	0.1
519.063	0.11
519.413	0.11
519.763	0.11
520.113	0.11
520.463	0.11
520.813	0.11
521.163	0.11
521.512	0.11
521.862	0.1
522.212	0.11
522.562	0.11
522.911	0.11
523.261	0.1
523.61	0.11
523.96	0.11
524.309	0.11
524.658	0.11
525.008	0.1
525.357	0.1
525.706	0.1
526.056	0.1
526.405	0.1
526.754	0.1
527.103	0.1
527.452	0.1
527.801	0.1
528.15	0.11
528.499	0.1
528.847	0.11
529.196	0.1
529.545	0.11
529.893	0.12
530.242	0.11
530.591	0.11
530.939	0.11
531.288	0.11
531.636	0.12
531.985	0.11
532.333	0.11
532.681	0.11
533.029	0.11
533.378	0.11
533.726	0.11
534.074	0.11
534.422	0.1
534.77	0.11
535.118	0.11
535.466	0.11
535.814	0.11
536.162	0.12
536.509	0.12
536.857	0.11
537.205	0.11
537.552	0.11
537.9	0.11
538.248	0.11
538.595	0.11
538.943	0.11
539.29	0.11
539.637	0.11
539.985	0.11
540.332	0.11
540.679	0.11
541.026	0.1
541.373	0.11
541.721	0.1
542.068	0.1
542.415	0.11
542.762	0.1
543.108	0.09
543.455	0.09
543.802	0.1
544.149	0.1
544.496	0.1
544.842	0.09
545.189	0.09
545.535	0.1
545.882	0.1
546.228	0.09
546.575	0.09
546.921	0.09
547.267	0.09
547.614	0.1
547.96	0.1
548.306	0.09
548.652	0.1
548.998	0.1
549.344	0.1
549.69	0.09
550.036	0.09
550.382	0.09
550.728	0.09
551.074	0.1
551.42	0.1
551.765	0.1
552.111	0.11
552.457	0.11
552.802	0.1
553.148	0.1
553.493	0.1
553.839	0.11
554.184	0.11
554.529	0.1
554.875	0.1
555.22	0.1
555.565	0.1
555.91	0.1
556.255	0.11
556.6	0.11
556.945	0.09
557.29	0.11
557.635	0.1
557.98	0.1
558.325	0.11
558.67	0.1
559.014	0.1
559.359	0.11
559.704	0.1
560.048	0.09
560.393	0.1
560.737	0.09
561.082	0.1
561.426	0.09
561.77	0.1
562.115	0.09
562.459	0.1
562.803	0.09
563.147	0.1
563.491	0.1
563.835	0.11
564.179	0.1
564.523	0.1
564.867	0.1
565.211	0.1
565.555	0.1
565.899	0.11
566.242	0.1
566.586	0.1
566.93	0.1
567.273	0.11
567.617	0.11
567.96	0.11
568.304	0.1
568.647	0.1
568.99	0.1
569.334	0.11
569.677	0.1
570.02	0.11
570.363	0.11
570.706	0.1
571.049	0.1
571.392	0.11
571.735	0.1
572.078	0.11
572.421	0.11
572.764	0.11
573.106	0.11
573.449	0.1
573.792	0.1
574.134	0.1
574.477	0.1
574.819	0.1
575.162	0.1
575.504	0.1
575.847	0.1
576.189	0.11
576.531	0.1
576.873	0.1
577.215	0.11
577.558	0.1
577.9	0.09
578.242	0.1
578.584	0.11
578.926	0.1
579.267	0.1
579.609	0.11
579.951	0.1
580.293	0.1
580.634	0.11
580.976	0.1
581.318	0.11
581.659	0.09
582.001	0.1
582.342	0.1
582.683	0.1
583.025	0.1
583.366	0.1
583.707	0.1
584.049	0.09
584.39	0.1
584.731	0.09
585.072	0.09
585.413	0.1
585.754	0.1
586.095	0.1
586.435	0.1
586.776	0.09
587.117	0.1
587.458	0.09
587.798	0.1
588.139	0.1
588.48	0.09
588.82	0.09
589.161	0.1
589.501	0.09
589.841	0.1
590.182	0.1
590.522	0.1
590.862	0.1
591.202	0.09
591.542	0.09
591.882	0.1
592.222	0.09
592.562	0.1
592.902	0.1
593.242	0.1
593.582	0.1
593.922	0.1
594.261	0.09
594.601	0.1
594.941	0.09
595.28	0.1
595.62	0.1
595.959	0.09
596.299	0.09
596.638	0.09
596.977	0.1
597.317	0.1
597.656	0.09
597.995	0.1
598.334	0.11
598.673	0.1
599.012	0.1
599.351	0.1
599.69	0.1
600.029	0.11
600.368	0.11
600.707	0.11
601.046	0.1
601.384	0.1
601.723	0.1
602.061	0.1
602.4	0.1
602.738	0.1
603.077	0.1
603.415	0.1
603.754	0.1
604.092	0.1
604.43	0.1
604.768	0.1
605.107	0.1
605.445	0.1
605.783	0.09
606.121	0.1
606.459	0.1
606.796	0.09
607.134	0.09
607.472	0.1
607.81	0.1
608.148	0.1
608.485	0.1
608.823	0.1
609.16	0.1
609.498	0.09
609.835	0.1
610.173	0.09
610.51	0.1
610.847	0.09
611.185	0.1
611.522	0.1
611.859	0.1
612.196	0.1
612.533	0.1
612.87	0.11
613.207	0.1
613.544	0.1
613.881	0.11
614.217	0.1
614.554	0.1
614.891	0.11
615.228	0.11
615.564	0.11
615.901	0.11
616.237	0.11
616.574	0.11
616.91	0.11
617.246	0.11
617.583	0.11
617.919	0.11
618.255	0.11
618.591	0.1
618.927	0.11
619.263	0.11
619.599	0.11
619.935	0.11
620.271	0.11
620.607	0.11
620.943	0.1
621.279	0.1
621.614	0.1
621.95	0.11
622.286	0.1
622.621	0.1
622.957	0.1
623.292	0.09
623.627	0.1
623.963	0.1
624.298	0.1
624.633	0.1
624.968	0.1
625.304	0.1
625.639	0.1
625.974	0.09
626.309	0.09
626.644	0.09
626.979	0.1
627.313	0.09
627.648	0.1
627.983	0.1
628.318	0.09
628.652	0.09
628.987	0.09
629.321	0.1
629.656	0.09
629.99	0.08
630.325	0.1
630.659	0.09
630.993	0.09
631.327	0.09
631.662	0.08
631.996	0.08
632.33	0.09
632.664	0.09
632.998	0.08
633.332	0.09
633.666	0.09
633.999	0.09
634.333	0.08
634.667	0.08
635.001	0.08
635.334	0.09
635.668	0.08
636.001	0.09
636.335	0.09
636.668	0.09
637.001	0.08
637.335	0.08
637.668	0.09
638.001	0.08
638.334	0.08
638.668	0.08
639.001	0.09
639.334	0.08
639.667	0.08
639.999	0.09
640.332	0.09
640.665	0.09
640.998	0.09
641.331	0.09
641.663	0.09
641.996	0.08
642.328	0.09
642.661	0.08
642.993	0.08
643.326	0.08
643.658	0.08
643.99	0.09
644.323	0.08
644.655	0.09
644.987	0.08
645.319	0.08
645.651	0.09
645.983	0.08
646.315	0.08
646.647	0.08
646.979	0.09
647.31	0.09
647.642	0.08
647.974	0.09
648.305	0.09
648.637	0.08
648.968	0.08
649.3	0.09
649.631	0.09
649.963	0.08
650.294	0.09
650.625	0.08
650.957	0.08
651.288	0.09
651.619	0.1
651.95	0.09
652.281	0.09
652.612	0.09
652.943	0.09
653.274	0.09
653.604	0.09
653.935	0.09
654.266	0.09
654.596	0.09
654.927	0.09
655.258	0.09
655.588	0.09
655.918	0.09
656.249	0.07
656.579	0.08
656.909	0.08
657.24	0.09
657.57	0.09
657.9	0.09
658.23	0.09
658.56	0.09
658.89	0.09
659.22	0.08
659.55	0.08
659.88	0.09
660.209	0.09
660.539	0.09
660.869	0.09
661.198	0.08
661.528	0.08
661.857	0.08
662.187	0.08
662.516	0.09
662.846	0.08
663.175	0.08
663.504	0.08
663.833	0.08
664.163	0.09
664.492	0.08
664.821	0.09
665.15	0.08
665.479	0.09
665.807	0.08
666.136	0.09
666.465	0.08
666.794	0.08
667.122	0.08
667.451	0.08
667.78	0.08
668.108	0.09
668.437	0.09
668.765	0.09
669.093	0.09
669.422	0.09
669.75	0.08
670.078	0.08
670.406	0.09
670.734	0.09
671.062	0.08
671.39	0.08
671.718	0.09
672.046	0.08
672.374	0.08
672.702	0.08
673.029	0.08
673.357	0.08
673.685	0.08
674.012	0.08
674.34	0.08
674.667	0.09
674.995	0.09
675.322	0.08
675.649	0.08
675.977	0.08
676.304	0.08
676.631	0.09
676.958	0.08
677.285	0.08
677.612	0.07
677.939	0.08
678.266	0.08
678.593	0.08
678.92	0.07
679.246	0.07
679.573	0.08
679.9	0.08
680.226	0.08
680.553	0.07
680.879	0.08
681.206	0.08
681.532	0.08
681.858	0.08
682.184	0.08
682.511	0.08
682.837	0.07
683.163	0.08
683.489	0.08
683.815	0.08
684.141	0.08
684.467	0.07
684.793	0.07
685.118	0.08
685.444	0.08
685.77	0.07
686.095	0.08
686.421	0.08
686.746	0.08
687.072	0.08
687.397	0.07
687.723	0.08
688.048	0.08
688.373	0.08
688.698	0.08
689.023	0.08
689.349	0.08
689.674	0.08
689.999	0.07
690.323	0.07
690.648	0.07
690.973	0.07
691.298	0.06
691.623	0.08
691.947	0.08
692.272	0.07
692.596	0.07
692.921	0.08
693.245	0.07
693.57	0.08
693.894	0.08
694.218	0.08
694.543	0.08
694.867	0.08
695.191	0.07
695.515	0.08
695.839	0.07
696.163	0.08
696.487	0.08
696.811	0.07
697.135	0.08
697.458	0.08
697.782	0.08
698.106	0.07
698.429	0.08
698.753	0.07
699.076	0.07
699.4	0.07
699.723	0.07
700.046	0.07
700.37	0.08
700.693	0.07
701.016	0.08
701.339	0.07
701.662	0.08
701.985	0.07
702.308	0.07
702.631	0.07
702.954	0.08
703.277	0.07
703.599	0.07
703.922	0.06
704.245	0.07
704.567	0.07
704.89	0.07
705.212	0.07
705.535	0.07
705.857	0.06
706.179	0.06
706.502	0.06
706.824	0.06
707.146	0.06
707.468	0.07
707.79	0.06
708.112	0.07
708.434	0.06
708.756	0.07
709.078	0.07
709.399	0.07
709.721	0.07
710.043	0.07
710.364	0.07
710.686	0.07
711.007	0.07
711.329	0.08
711.65	0.07
711.972	0.07
712.293	0.07
712.614	0.07
712.935	0.08
713.256	0.08
713.577	0.08
713.898	0.08
714.219	0.07
714.54	0.07
714.861	0.06
715.182	0.07
715.503	0.06
715.823	0.07
716.144	0.06
716.464	0.06
716.785	0.06
717.105	0.06
717.426	0.07
717.746	0.06
718.066	0.06
718.387	0.06
718.707	0.05
719.027	0.07
719.347	0.05
719.667	0.06
719.987	0.06
720.307	0.05
720.627	0.06
720.947	0.06
721.266	0.06
721.586	0.06
721.906	0.06
722.225	0.06
722.545	0.06
722.864	0.06
723.184	0.06
723.503	0.06
723.823	0.06
724.142	0.06
724.461	0.06
724.78	0.06
725.099	0.06
725.418	0.06
725.737	0.05
726.056	0.06
726.375	0.07
726.694	0.06
727.013	0.06
727.331	0.05
727.65	0.05
