Data from 12-12-AQDScycling_Absorbance__420__00420.txt Node

Date: Tue Dec 12 12:41:44 EST 2023
User: kyuminlee
Spectrometer: FLMS00943
Trigger mode: 0
Integration Time (sec): 1.000000E-1
Scans to average: 1
Electric dark correction enabled: true
Nonlinearity correction enabled: false
Boxcar width: 0
XAxis mode: Wavelengths
Number of Pixels in Spectrum: 2048
>>>>>Begin Spectral Data<<<<<
179.651	-0
180.037	-0
180.424	-0
180.81	-0.33
181.197	0.34
181.583	-0
181.97	-0
182.356	-0.64
182.743	-1.12
183.129	0.5
183.515	0.06
183.901	-2.23
184.288	-0.21
184.674	-0
185.06	-1.02
185.446	-0
185.832	-0.15
186.218	0.19
186.604	-0.12
186.99	-0.15
187.376	-0
187.762	0.62
188.148	0.3
188.534	0.62
188.92	0.13
189.305	0.13
189.691	0.52
190.077	0.21
190.463	0.15
190.848	0.16
191.234	0.1
191.619	0.08
192.005	0.22
192.391	0.08
192.776	0.14
193.161	0.13
193.547	0.35
193.932	0.03
194.318	0.07
194.703	0.16
195.088	0.22
195.473	0.22
195.859	0.23
196.244	0.13
196.629	0.07
197.014	0.14
197.399	0.2
197.784	0.11
198.169	0.1
198.554	0.17
198.939	0.28
199.324	0.22
199.709	0.15
200.094	0.07
200.478	0.18
200.863	0.25
201.248	0.14
201.633	0.22
202.017	0.18
202.402	0.34
202.787	0.21
203.171	0.32
203.556	0.24
203.94	0.2
204.325	0.25
204.709	0.18
205.093	0.04
205.478	0.17
205.862	0.37
206.246	0.15
206.631	0.12
207.015	0.06
207.399	0.22
207.783	0.26
208.167	0.22
208.551	0.13
208.935	0.34
209.319	0.28
209.703	0.23
210.087	0.25
210.471	0.05
210.855	0.17
211.239	0.23
211.623	0.28
212.007	0.47
212.39	0.33
212.774	0.25
213.158	0.16
213.541	0.25
213.925	0.32
214.309	0.3
214.692	0.52
215.076	0.16
215.459	0.24
215.842	0.13
216.226	0.31
216.609	0.27
216.993	0.23
217.376	0.37
217.759	0.27
218.142	0.46
218.525	0.8
218.909	0.53
219.292	0.38
219.675	0.54
220.058	0.58
220.441	0.49
220.824	0.56
221.207	0.51
221.59	0.54
221.973	0.51
222.355	0.62
222.738	0.79
223.121	0.52
223.504	0.51
223.886	0.68
224.269	0.75
224.652	0.77
225.034	0.83
225.417	0.65
225.799	0.74
226.182	1.02
226.564	0.84
226.947	0.77
227.329	1.01
227.711	1.11
228.094	0.93
228.476	0.83
228.858	0.78
229.24	0.77
229.623	0.92
230.005	0.85
230.387	0.9
230.769	0.83
231.151	0.94
231.533	0.98
231.915	0.93
232.297	0.97
232.679	0.99
233.061	1.04
233.442	1.02
233.824	1.14
234.206	1.08
234.588	1.01
234.969	1.11
235.351	1
235.733	1.1
236.114	1.08
236.496	1.16
236.877	1.05
237.259	1.15
237.64	1.01
238.022	1.04
238.403	1.04
238.784	1.15
239.165	0.97
239.547	1.06
239.928	1.13
240.309	1
240.69	1.03
241.071	1.26
241.452	1.23
241.834	0.97
242.215	1.13
242.595	1.04
242.976	1.21
243.357	1.22
243.738	1.1
244.119	1.29
244.5	1.05
244.881	1.26
245.261	1.23
245.642	1.17
246.023	1.21
246.403	1.17
246.784	1.11
247.164	1.24
247.545	1.42
247.925	1.3
248.306	1.21
248.686	1.59
249.067	1.28
249.447	1.42
249.827	1.68
250.207	1.4
250.588	1.3
250.968	1.42
251.348	1.28
251.728	1.4
252.108	1.32
252.488	1.44
252.868	1.35
253.248	1.39
253.628	1.41
254.008	1.54
254.388	1.37
254.768	1.3
255.147	1.44
255.527	1.48
255.907	1.29
256.287	1.41
256.666	1.38
257.046	1.53
257.425	1.59
257.805	1.37
258.184	1.53
258.564	1.42
258.943	1.31
259.323	1.53
259.702	1.42
260.081	1.46
260.461	1.63
260.84	1.4
261.219	1.73
261.598	1.65
261.977	1.53
262.356	1.71
262.736	1.49
263.115	1.62
263.494	1.35
263.873	1.48
264.251	1.6
264.63	1.51
265.009	1.53
265.388	1.39
265.767	1.38
266.145	1.46
266.524	1.55
266.903	1.42
267.281	1.39
267.66	1.66
268.039	1.55
268.417	1.39
268.796	1.5
269.174	1.48
269.552	1.27
269.931	1.48
270.309	1.44
270.687	1.51
271.066	1.63
271.444	1.38
271.822	1.46
272.2	1.55
272.578	1.34
272.956	1.37
273.334	1.41
273.712	1.43
274.09	1.42
274.468	1.36
274.846	1.34
275.224	1.51
275.602	1.52
275.98	1.44
276.357	1.49
276.735	1.41
277.113	1.5
277.49	1.3
277.868	1.38
278.246	1.47
278.623	1.37
279.001	1.39
279.378	1.32
279.756	1.52
280.133	1.69
280.51	1.5
280.888	1.48
281.265	1.45
281.642	1.48
282.019	1.76
282.396	1.74
282.773	1.43
283.151	1.53
283.528	1.49
283.905	1.43
284.282	1.54
284.659	1.46
285.035	1.28
285.412	1.46
285.789	1.59
286.166	1.7
286.543	1.44
286.919	1.35
287.296	1.53
287.673	1.64
288.049	1.68
288.426	1.53
288.802	1.48
289.179	1.46
289.555	1.69
289.932	1.43
290.308	1.31
290.684	1.45
291.061	1.41
291.437	1.71
291.813	1.41
292.189	1.28
292.565	1.41
292.942	1.35
293.318	1.41
293.694	1.49
294.07	1.43
294.446	1.4
294.822	1.66
295.197	1.54
295.573	1.54
295.949	1.52
296.325	1.65
296.701	1.57
297.076	1.91
297.452	1.59
297.828	1.54
298.203	1.65
298.579	1.52
298.954	1.49
299.33	1.41
299.705	1.44
300.081	1.37
300.456	1.46
300.831	1.54
301.206	1.46
301.582	1.5
301.957	1.45
302.332	1.6
302.707	1.41
303.082	1.53
303.457	1.43
303.832	1.44
304.207	1.48
304.582	1.38
304.957	1.4
305.332	1.49
305.707	1.52
306.082	1.53
306.456	1.53
306.831	1.53
307.206	1.44
307.58	1.52
307.955	1.4
308.33	1.37
308.704	1.43
309.079	1.43
309.453	1.62
309.828	1.4
310.202	1.38
310.576	1.47
310.951	1.47
311.325	1.41
311.699	1.42
312.073	1.32
312.447	1.38
312.821	1.4
313.196	1.62
313.57	1.32
313.944	1.36
314.317	1.29
314.691	1.35
315.065	1.47
315.439	1.48
315.813	1.43
316.187	1.41
316.56	1.57
316.934	1.42
317.308	1.37
317.681	1.43
318.055	1.45
318.428	1.39
318.802	1.56
319.175	1.41
319.549	1.49
319.922	1.38
320.295	1.34
320.669	1.56
321.042	1.37
321.415	1.71
321.788	1.48
322.162	1.4
322.535	1.57
322.908	1.56
323.281	1.35
323.654	1.57
324.027	1.44
324.4	1.68
324.773	1.51
325.145	1.53
325.518	1.41
325.891	1.44
326.264	1.58
326.636	1.37
327.009	1.41
327.382	1.48
327.754	1.56
328.127	1.36
328.499	1.55
328.872	1.5
329.244	1.47
329.616	1.41
329.989	1.38
330.361	1.4
330.733	1.48
331.106	1.46
331.478	1.47
331.85	1.47
332.222	1.37
332.594	1.51
332.966	1.5
333.338	1.58
333.71	1.58
334.082	1.49
334.454	1.49
334.826	1.59
335.197	1.51
335.569	1.41
335.941	1.46
336.312	1.43
336.684	1.58
337.056	1.47
337.427	1.53
337.799	1.6
338.17	1.47
338.542	1.42
338.913	1.56
339.284	1.57
339.656	1.54
340.027	1.59
340.398	1.5
340.769	1.51
341.141	1.52
341.512	1.66
341.883	1.49
342.254	1.4
342.625	1.6
342.996	1.38
343.367	1.48
343.738	1.44
344.108	1.51
344.479	1.44
344.85	1.42
345.221	1.75
345.591	1.47
345.962	1.48
346.333	1.5
346.703	1.33
347.074	1.3
347.444	1.33
347.815	1.39
348.185	1.36
348.556	1.39
348.926	1.4
349.296	1.4
349.666	1.47
350.037	1.24
350.407	1.29
350.777	1.3
351.147	1.42
351.517	1.42
351.887	1.35
352.257	1.35
352.627	1.23
352.997	1.32
353.367	1.4
353.737	1.4
354.106	1.45
354.476	1.35
354.846	1.42
355.216	1.41
355.585	1.51
355.955	1.39
356.324	1.31
356.694	1.43
357.063	1.4
357.433	1.34
357.802	1.39
358.171	1.34
358.541	1.33
358.91	1.44
359.279	1.45
359.648	1.3
360.017	1.39
360.387	1.34
360.756	1.35
361.125	1.37
361.494	1.42
361.863	1.32
362.231	1.32
362.6	1.34
362.969	1.33
363.338	1.33
363.707	1.37
364.075	1.45
364.444	1.29
364.813	1.36
365.181	1.34
365.55	1.38
365.918	1.52
366.287	1.37
366.655	1.31
367.024	1.34
367.392	1.36
367.76	1.38
368.128	1.45
368.497	1.39
368.865	1.33
369.233	1.26
369.601	1.41
369.969	1.41
370.337	1.38
370.705	1.41
371.073	1.33
371.441	1.39
371.809	1.37
372.177	1.3
372.544	1.45
372.912	1.38
373.28	1.4
373.647	1.34
374.015	1.44
374.383	1.47
374.75	1.5
375.118	1.31
375.485	1.43
375.853	1.54
376.22	1.33
376.587	1.33
376.955	1.44
377.322	1.37
377.689	1.34
378.056	1.54
378.423	1.32
378.79	1.33
379.157	1.37
379.524	1.46
379.891	1.45
380.258	1.44
380.625	1.41
380.992	1.41
381.359	1.47
381.726	1.45
382.092	1.51
382.459	1.44
382.826	1.43
383.192	1.46
383.559	1.53
383.925	1.49
384.292	1.53
384.658	1.72
385.025	1.47
385.391	1.45
385.757	1.52
386.123	1.68
386.49	1.57
386.856	1.49
387.222	1.66
387.588	1.48
387.954	1.66
388.32	1.5
388.686	1.6
389.052	1.58
389.418	1.65
389.784	1.47
390.15	1.6
390.515	1.42
390.881	1.79
391.247	1.39
391.613	1.57
391.978	1.43
392.344	1.57
392.709	1.55
393.075	1.61
393.44	1.48
393.806	1.6
394.171	1.46
394.536	1.48
394.902	1.62
395.267	1.4
395.632	1.35
395.997	1.33
396.362	1.43
396.727	1.58
397.092	1.59
397.457	1.4
397.822	1.47
398.187	1.74
398.552	1.46
398.917	1.65
399.282	1.38
399.646	1.56
400.011	1.61
400.376	1.44
400.74	1.42
401.105	1.44
401.47	1.54
401.834	1.54
402.199	1.4
402.563	1.55
402.927	1.43
403.292	1.46
403.656	1.43
404.02	1.48
404.384	1.57
404.749	1.4
405.113	1.41
405.477	1.51
405.841	1.38
406.205	1.44
406.569	1.37
406.933	1.42
407.296	1.43
407.66	1.35
408.024	1.33
408.388	1.35
408.752	1.42
409.115	1.37
409.479	1.39
409.842	1.31
410.206	1.33
410.569	1.26
410.933	1.28
411.296	1.24
411.66	1.37
412.023	1.29
412.386	1.34
412.749	1.3
413.113	1.31
413.476	1.23
413.839	1.24
414.202	1.25
414.565	1.19
414.928	1.28
415.291	1.17
415.654	1.15
416.017	1.29
416.38	1.27
416.742	1.24
417.105	1.24
417.468	1.23
417.83	1.29
418.193	1.28
418.556	1.19
418.918	1.14
419.281	1.24
419.643	1.25
420.005	1.21
420.368	1.21
420.73	1.21
421.092	1.25
421.455	1.23
421.817	1.13
422.179	1.2
422.541	1.19
422.903	1.22
423.265	1.23
423.627	1.22
423.989	1.16
424.351	1.13
424.713	1.18
425.075	1.19
425.436	1.16
425.798	1.11
426.16	1.19
426.521	1.12
426.883	1.14
427.245	1.15
427.606	1.12
427.967	1.1
428.329	1.09
428.69	1.18
429.052	1.17
429.413	1.17
429.774	1.12
430.135	1.2
430.497	1.16
430.858	1.07
431.219	1.1
431.58	1.07
431.941	1.09
432.302	1.07
432.663	1.08
433.024	1.14
433.384	1.13
433.745	1.09
434.106	1.14
434.467	1.1
434.827	1.07
435.188	1.02
435.548	1.11
435.909	1.08
436.269	1.08
436.63	1.04
436.99	1.05
437.351	1.04
437.711	1.07
438.071	1.02
438.431	1.02
438.792	1.03
439.152	1.01
439.512	0.99
439.872	1
440.232	1.06
440.592	1.03
440.952	0.99
441.312	0.99
441.671	0.99
442.031	0.98
442.391	0.94
442.751	0.97
443.11	0.97
443.47	0.95
443.83	0.93
444.189	0.93
444.549	0.93
444.908	0.93
445.267	0.95
445.627	0.91
445.986	0.9
446.345	0.9
446.705	0.89
447.064	0.9
447.423	0.9
447.782	0.89
448.141	0.9
448.5	0.86
448.859	0.87
449.218	0.85
449.577	0.89
449.936	0.86
450.295	0.85
450.653	0.84
451.012	0.84
451.371	0.83
451.729	0.85
452.088	0.84
452.447	0.84
452.805	0.82
453.163	0.81
453.522	0.81
453.88	0.79
454.239	0.78
454.597	0.77
454.955	0.77
455.313	0.76
455.671	0.77
456.029	0.76
456.388	0.74
456.746	0.75
457.104	0.73
457.461	0.71
457.819	0.71
458.177	0.72
458.535	0.7
458.893	0.7
459.25	0.7
459.608	0.68
459.966	0.66
460.323	0.67
460.681	0.65
461.038	0.65
461.396	0.64
461.753	0.63
462.111	0.63
462.468	0.61
462.825	0.6
463.182	0.61
463.54	0.59
463.897	0.59
464.254	0.59
464.611	0.58
464.968	0.57
465.325	0.57
465.682	0.56
466.039	0.56
466.395	0.54
466.752	0.53
467.109	0.53
467.466	0.53
467.822	0.53
468.179	0.51
468.535	0.52
468.892	0.5
469.248	0.48
469.605	0.48
469.961	0.48
470.318	0.48
470.674	0.47
471.03	0.46
471.386	0.46
471.743	0.45
472.099	0.45
472.455	0.45
472.811	0.44
473.167	0.43
473.523	0.42
473.879	0.42
474.235	0.41
474.59	0.41
474.946	0.39
475.302	0.4
475.657	0.38
476.013	0.38
476.369	0.37
476.724	0.37
477.08	0.37
477.435	0.36
477.791	0.35
478.146	0.36
478.501	0.35
478.857	0.34
479.212	0.35
479.567	0.34
479.922	0.33
480.277	0.33
480.632	0.32
480.987	0.33
481.342	0.32
481.697	0.31
482.052	0.3
482.407	0.31
482.762	0.3
483.116	0.29
483.471	0.29
483.826	0.29
484.18	0.28
484.535	0.28
484.89	0.27
485.244	0.28
485.598	0.27
485.953	0.27
486.307	0.26
486.661	0.27
487.016	0.26
487.37	0.26
487.724	0.26
488.078	0.25
488.432	0.25
488.786	0.25
489.14	0.24
489.494	0.23
489.848	0.23
490.202	0.23
490.556	0.23
490.91	0.23
491.263	0.23
491.617	0.23
491.971	0.22
492.324	0.22
492.678	0.23
493.031	0.23
493.385	0.22
493.738	0.21
494.091	0.22
494.445	0.21
494.798	0.21
495.151	0.21
495.504	0.21
495.857	0.21
496.21	0.2
496.564	0.2
496.916	0.2
497.269	0.19
497.622	0.2
497.975	0.2
498.328	0.2
498.681	0.2
499.033	0.19
499.386	0.19
499.739	0.19
500.091	0.19
500.444	0.19
500.796	0.19
501.149	0.17
501.501	0.19
501.854	0.18
502.206	0.18
502.558	0.19
502.91	0.18
503.263	0.17
503.615	0.18
503.967	0.18
504.319	0.18
504.671	0.17
505.023	0.17
505.375	0.17
505.726	0.17
506.078	0.17
506.43	0.17
506.782	0.16
507.133	0.16
507.485	0.17
507.837	0.17
508.188	0.18
508.54	0.18
508.891	0.18
509.243	0.17
509.594	0.17
509.945	0.17
510.296	0.17
510.648	0.17
510.999	0.16
511.35	0.17
511.701	0.17
512.052	0.17
512.403	0.17
512.754	0.17
513.105	0.17
513.456	0.16
513.807	0.16
514.157	0.17
514.508	0.16
514.859	0.16
515.209	0.17
515.56	0.17
515.91	0.16
516.261	0.17
516.611	0.17
516.962	0.17
517.312	0.17
517.662	0.16
518.013	0.17
518.363	0.17
518.713	0.16
519.063	0.17
519.413	0.17
519.763	0.17
520.113	0.16
520.463	0.17
520.813	0.17
521.163	0.17
521.512	0.17
521.862	0.17
522.212	0.17
522.562	0.17
522.911	0.17
523.261	0.17
523.61	0.17
523.96	0.17
524.309	0.17
524.658	0.17
525.008	0.16
525.357	0.16
525.706	0.17
526.056	0.16
526.405	0.16
526.754	0.17
527.103	0.17
527.452	0.17
527.801	0.17
528.15	0.18
528.499	0.16
528.847	0.17
529.196	0.17
529.545	0.17
529.893	0.17
530.242	0.18
530.591	0.17
530.939	0.17
531.288	0.18
531.636	0.18
531.985	0.17
532.333	0.17
532.681	0.17
533.029	0.17
533.378	0.17
533.726	0.18
534.074	0.18
534.422	0.17
534.77	0.18
535.118	0.17
535.466	0.17
535.814	0.18
536.162	0.18
536.509	0.18
536.857	0.17
537.205	0.18
537.552	0.18
537.9	0.18
538.248	0.17
538.595	0.18
538.943	0.18
539.29	0.18
539.637	0.18
539.985	0.17
540.332	0.18
540.679	0.18
541.026	0.17
541.373	0.18
541.721	0.17
542.068	0.18
542.415	0.17
542.762	0.16
543.108	0.17
543.455	0.16
543.802	0.16
544.149	0.17
544.496	0.17
544.842	0.16
545.189	0.16
545.535	0.17
545.882	0.17
546.228	0.17
546.575	0.17
546.921	0.16
547.267	0.17
547.614	0.17
547.96	0.17
548.306	0.16
548.652	0.17
548.998	0.17
549.344	0.17
549.69	0.18
550.036	0.17
550.382	0.18
550.728	0.17
551.074	0.18
551.42	0.17
551.765	0.18
552.111	0.18
552.457	0.18
552.802	0.17
553.148	0.17
553.493	0.17
553.839	0.18
554.184	0.17
554.529	0.17
554.875	0.17
555.22	0.18
555.565	0.17
555.91	0.18
556.255	0.18
556.6	0.18
556.945	0.17
557.29	0.18
557.635	0.18
557.98	0.18
558.325	0.18
558.67	0.18
559.014	0.18
559.359	0.18
559.704	0.18
560.048	0.17
560.393	0.18
560.737	0.17
561.082	0.18
561.426	0.18
561.77	0.18
562.115	0.18
562.459	0.17
562.803	0.18
563.147	0.18
563.491	0.18
563.835	0.18
564.179	0.17
564.523	0.18
564.867	0.18
565.211	0.18
565.555	0.17
565.899	0.18
566.242	0.18
566.586	0.18
566.93	0.19
567.273	0.19
567.617	0.18
567.96	0.18
568.304	0.18
568.647	0.18
568.99	0.19
569.334	0.19
569.677	0.18
570.02	0.19
570.363	0.19
570.706	0.18
571.049	0.18
571.392	0.19
571.735	0.18
572.078	0.18
572.421	0.19
572.764	0.18
573.106	0.18
573.449	0.18
573.792	0.18
574.134	0.17
574.477	0.18
574.819	0.18
575.162	0.18
575.504	0.17
575.847	0.18
576.189	0.18
576.531	0.17
576.873	0.18
577.215	0.18
577.558	0.18
577.9	0.17
578.242	0.18
578.584	0.18
578.926	0.17
579.267	0.18
579.609	0.18
579.951	0.18
580.293	0.18
580.634	0.18
580.976	0.19
581.318	0.17
581.659	0.17
582.001	0.18
582.342	0.18
582.683	0.19
583.025	0.18
583.366	0.17
583.707	0.18
584.049	0.18
584.39	0.18
584.731	0.18
585.072	0.17
585.413	0.19
585.754	0.18
586.095	0.18
586.435	0.18
586.776	0.18
587.117	0.18
587.458	0.18
587.798	0.18
588.139	0.18
588.48	0.17
588.82	0.18
589.161	0.18
589.501	0.17
589.841	0.18
590.182	0.17
590.522	0.17
590.862	0.17
591.202	0.17
591.542	0.18
591.882	0.17
592.222	0.18
592.562	0.17
592.902	0.17
593.242	0.18
593.582	0.19
593.922	0.18
594.261	0.18
594.601	0.17
594.941	0.17
595.28	0.18
595.62	0.18
595.959	0.18
596.299	0.17
596.638	0.17
596.977	0.18
597.317	0.18
597.656	0.18
597.995	0.17
598.334	0.18
598.673	0.17
599.012	0.18
599.351	0.19
599.69	0.17
600.029	0.18
600.368	0.18
600.707	0.18
601.046	0.18
601.384	0.18
601.723	0.18
602.061	0.17
602.4	0.18
602.738	0.18
603.077	0.18
603.415	0.18
603.754	0.17
604.092	0.18
604.43	0.17
604.768	0.17
605.107	0.17
605.445	0.17
605.783	0.16
606.121	0.17
606.459	0.18
606.796	0.17
607.134	0.17
607.472	0.17
607.81	0.17
608.148	0.17
608.485	0.18
608.823	0.17
609.16	0.17
609.498	0.17
609.835	0.17
610.173	0.17
610.51	0.17
610.847	0.18
611.185	0.18
611.522	0.17
611.859	0.18
612.196	0.18
612.533	0.19
612.87	0.18
613.207	0.19
613.544	0.18
613.881	0.19
614.217	0.18
614.554	0.17
614.891	0.18
615.228	0.18
615.564	0.18
615.901	0.18
616.237	0.18
616.574	0.18
616.91	0.19
617.246	0.18
617.583	0.18
617.919	0.18
618.255	0.18
618.591	0.18
618.927	0.18
619.263	0.19
619.599	0.18
619.935	0.18
620.271	0.18
620.607	0.18
620.943	0.18
621.279	0.18
621.614	0.18
621.95	0.18
622.286	0.18
622.621	0.17
622.957	0.18
623.292	0.17
623.627	0.17
623.963	0.16
624.298	0.17
624.633	0.16
624.968	0.17
625.304	0.16
625.639	0.17
625.974	0.16
626.309	0.16
626.644	0.17
626.979	0.17
627.313	0.16
627.648	0.16
627.983	0.16
628.318	0.16
628.652	0.16
628.987	0.17
629.321	0.17
629.656	0.15
629.99	0.16
630.325	0.16
630.659	0.16
630.993	0.16
631.327	0.16
631.662	0.15
631.996	0.16
632.33	0.16
632.664	0.16
632.998	0.16
633.332	0.16
633.666	0.15
633.999	0.16
634.333	0.15
634.667	0.16
635.001	0.15
635.334	0.15
635.668	0.15
636.001	0.15
636.335	0.15
636.668	0.15
637.001	0.14
637.335	0.16
637.668	0.15
638.001	0.15
638.334	0.15
638.668	0.14
639.001	0.15
639.334	0.15
639.667	0.15
639.999	0.14
640.332	0.15
640.665	0.15
640.998	0.14
641.331	0.14
641.663	0.14
641.996	0.14
642.328	0.15
642.661	0.14
642.993	0.14
643.326	0.15
643.658	0.14
643.99	0.14
644.323	0.14
644.655	0.14
644.987	0.14
645.319	0.14
645.651	0.14
645.983	0.15
646.315	0.14
646.647	0.15
646.979	0.14
647.31	0.15
647.642	0.15
647.974	0.14
648.305	0.15
648.637	0.14
648.968	0.15
649.3	0.15
649.631	0.15
649.963	0.14
650.294	0.15
650.625	0.14
650.957	0.15
651.288	0.15
651.619	0.15
651.95	0.15
652.281	0.15
652.612	0.15
652.943	0.14
653.274	0.16
653.604	0.15
653.935	0.15
654.266	0.15
654.596	0.15
654.927	0.14
655.258	0.15
655.588	0.15
655.918	0.15
656.249	0.13
656.579	0.14
656.909	0.14
657.24	0.14
657.57	0.15
657.9	0.15
658.23	0.14
658.56	0.16
658.89	0.15
659.22	0.15
659.55	0.15
659.88	0.15
660.209	0.15
660.539	0.15
660.869	0.15
661.198	0.15
661.528	0.15
661.857	0.14
662.187	0.16
662.516	0.15
662.846	0.14
663.175	0.14
663.504	0.14
663.833	0.14
664.163	0.14
664.492	0.14
664.821	0.15
665.15	0.14
665.479	0.14
665.807	0.13
666.136	0.14
666.465	0.14
666.794	0.14
667.122	0.14
667.451	0.14
667.78	0.14
668.108	0.14
668.437	0.13
668.765	0.13
669.093	0.14
669.422	0.14
669.75	0.14
670.078	0.14
670.406	0.14
670.734	0.14
671.062	0.13
671.39	0.14
671.718	0.13
672.046	0.14
672.374	0.13
672.702	0.13
673.029	0.13
673.357	0.13
673.685	0.14
674.012	0.13
674.34	0.13
674.667	0.14
674.995	0.13
675.322	0.14
675.649	0.12
675.977	0.13
676.304	0.13
676.631	0.14
676.958	0.14
677.285	0.13
677.612	0.13
677.939	0.13
678.266	0.14
678.593	0.12
678.92	0.14
679.246	0.13
679.573	0.14
679.9	0.12
680.226	0.13
680.553	0.12
680.879	0.13
681.206	0.13
681.532	0.13
681.858	0.13
682.184	0.13
682.511	0.13
682.837	0.12
683.163	0.13
683.489	0.12
683.815	0.12
684.141	0.12
684.467	0.12
684.793	0.12
685.118	0.11
685.444	0.13
685.77	0.11
686.095	0.12
686.421	0.12
686.746	0.12
687.072	0.12
687.397	0.12
687.723	0.13
688.048	0.13
688.373	0.12
688.698	0.12
689.023	0.13
689.349	0.12
689.674	0.12
689.999	0.12
690.323	0.11
690.648	0.12
690.973	0.11
691.298	0.12
691.623	0.12
691.947	0.12
692.272	0.12
692.596	0.12
692.921	0.11
693.245	0.12
693.57	0.12
693.894	0.12
694.218	0.12
694.543	0.12
694.867	0.12
695.191	0.11
695.515	0.12
695.839	0.11
696.163	0.11
696.487	0.11
696.811	0.11
697.135	0.12
697.458	0.11
697.782	0.11
698.106	0.11
698.429	0.11
698.753	0.11
699.076	0.11
699.4	0.12
699.723	0.11
700.046	0.11
700.37	0.12
700.693	0.11
701.016	0.11
701.339	0.11
701.662	0.12
701.985	0.11
702.308	0.11
702.631	0.12
702.954	0.11
703.277	0.11
703.599	0.11
703.922	0.1
704.245	0.11
704.567	0.1
704.89	0.11
705.212	0.11
705.535	0.1
705.857	0.1
706.179	0.1
706.502	0.1
706.824	0.09
707.146	0.1
707.468	0.1
707.79	0.1
708.112	0.1
708.434	0.1
708.756	0.1
709.078	0.1
709.399	0.09
709.721	0.1
710.043	0.1
710.364	0.1
710.686	0.1
711.007	0.1
711.329	0.1
711.65	0.1
711.972	0.1
712.293	0.1
712.614	0.11
712.935	0.1
713.256	0.11
713.577	0.11
713.898	0.09
714.219	0.09
714.54	0.1
714.861	0.09
715.182	0.09
715.503	0.09
715.823	0.1
716.144	0.09
716.464	0.08
716.785	0.09
717.105	0.09
717.426	0.09
717.746	0.09
718.066	0.08
718.387	0.08
718.707	0.09
719.027	0.09
719.347	0.08
719.667	0.09
719.987	0.08
720.307	0.08
720.627	0.08
720.947	0.09
721.266	0.08
721.586	0.08
721.906	0.09
722.225	0.08
722.545	0.08
722.864	0.09
723.184	0.09
723.503	0.08
