Data from 12-12-AQDScycling_Absorbance__194__00194.txt Node

Date: Tue Dec 12 11:45:14 EST 2023
User: kyuminlee
Spectrometer: FLMS00943
Trigger mode: 0
Integration Time (sec): 1.000000E-1
Scans to average: 1
Electric dark correction enabled: true
Nonlinearity correction enabled: false
Boxcar width: 0
XAxis mode: Wavelengths
Number of Pixels in Spectrum: 2048
>>>>>Begin Spectral Data<<<<<
179.651	-0
180.037	-0
180.424	-0
180.81	0.96
181.197	0.43
181.583	-0.46
181.97	0.11
182.356	-0
182.743	-0
183.129	0.76
183.515	0.49
183.901	-1.72
184.288	0.35
184.674	0.75
185.06	-0
185.446	-0
185.832	-0
186.218	0.12
186.604	-0.4
186.99	-0.5
187.376	-0
187.762	-0.17
188.148	-0
188.534	0.12
188.92	0.27
189.305	0.25
189.691	0.05
190.077	0.19
190.463	0.19
190.848	0.15
191.234	-0.02
191.619	0.12
192.005	0.13
192.391	0.07
192.776	0.15
193.161	0.22
193.547	0.26
193.932	0.25
194.318	0.11
194.703	0.16
195.088	0.21
195.473	0.34
195.859	0.18
196.244	0.14
196.629	0.1
197.014	0.24
197.399	0.09
197.784	0.15
198.169	0.11
198.554	0.15
198.939	0.11
199.324	0.17
199.709	0.11
200.094	0.14
200.478	0.1
200.863	0.23
201.248	0.31
201.633	0.18
202.017	0.15
202.402	0.23
202.787	0.13
203.171	0.34
203.556	0.18
203.94	0.36
204.325	0.39
204.709	0.07
205.093	0.14
205.478	0.1
205.862	0.11
206.246	0.11
206.631	0.08
207.015	0.18
207.399	0.29
207.783	0.09
208.167	0.11
208.551	0.18
208.935	0.14
209.319	0.25
209.703	0.09
210.087	0.29
210.471	-0.03
210.855	0.1
211.239	0.28
211.623	0.31
212.007	0.32
212.39	0.3
212.774	0.21
213.158	0.13
213.541	0.27
213.925	0.26
214.309	0.26
214.692	0.26
215.076	0.16
215.459	0.08
215.842	0.14
216.226	0.35
216.609	0.25
216.993	0.37
217.376	0.48
217.759	0.18
218.142	0.33
218.525	0.52
218.909	0.4
219.292	0.33
219.675	0.42
220.058	0.53
220.441	0.46
220.824	0.52
221.207	0.81
221.59	0.43
221.973	0.58
222.355	0.64
222.738	0.75
223.121	0.6
223.504	0.5
223.886	0.72
224.269	0.68
224.652	0.75
225.034	0.65
225.417	0.74
225.799	0.78
226.182	0.89
226.564	0.78
226.947	0.88
227.329	0.88
227.711	0.8
228.094	0.97
228.476	0.94
228.858	0.81
229.24	0.91
229.623	1.03
230.005	0.85
230.387	0.99
230.769	0.91
231.151	1.01
231.533	0.95
231.915	0.89
232.297	1.1
232.679	1.02
233.061	0.88
233.442	1.04
233.824	1.13
234.206	1.12
234.588	1.03
234.969	0.99
235.351	0.95
235.733	1.14
236.114	1.31
236.496	1.06
236.877	1.17
237.259	1.03
237.64	1.01
238.022	1.18
238.403	0.95
238.784	1.1
239.165	0.9
239.547	1.03
239.928	0.96
240.309	1.06
240.69	1.06
241.071	1.08
241.452	1.25
241.834	1.06
242.215	1
242.595	1.11
242.976	1.13
243.357	1.15
243.738	1.13
244.119	1.44
244.5	1.14
244.881	1.3
245.261	1.11
245.642	1.23
246.023	1.13
246.403	1.18
246.784	1.25
247.164	1.33
247.545	1.23
247.925	1.38
248.306	1.17
248.686	1.72
249.067	1.28
249.447	1.51
249.827	1.46
250.207	1.49
250.588	1.19
250.968	1.53
251.348	1.32
251.728	1.5
252.108	1.48
252.488	1.49
252.868	1.41
253.248	1.42
253.628	1.49
254.008	1.39
254.388	1.32
254.768	1.41
255.147	1.37
255.527	1.64
255.907	1.39
256.287	1.31
256.666	1.53
257.046	1.71
257.425	1.48
257.805	1.23
258.184	1.3
258.564	1.46
258.943	1.24
259.323	1.47
259.702	1.54
260.081	1.49
260.461	1.54
260.84	1.45
261.219	1.63
261.598	1.54
261.977	1.48
262.356	1.64
262.736	1.52
263.115	1.51
263.494	1.37
263.873	1.63
264.251	1.55
264.63	1.47
265.009	1.46
265.388	1.44
265.767	1.46
266.145	1.37
266.524	1.45
266.903	1.46
267.281	1.45
267.66	1.58
268.039	1.52
268.417	1.48
268.796	1.5
269.174	1.45
269.552	1.32
269.931	1.47
270.309	1.37
270.687	1.51
271.066	1.85
271.444	1.35
271.822	1.77
272.2	1.36
272.578	1.43
272.956	1.45
273.334	1.3
273.712	1.51
274.09	1.34
274.468	1.48
274.846	1.32
275.224	1.31
275.602	1.44
275.98	1.64
276.357	1.47
276.735	1.54
277.113	1.42
277.49	1.35
277.868	1.36
278.246	1.36
278.623	1.35
279.001	1.41
279.378	1.34
279.756	1.33
280.133	1.52
280.51	1.3
280.888	1.52
281.265	1.36
281.642	1.45
282.019	1.53
282.396	1.61
282.773	1.43
283.151	1.56
283.528	1.48
283.905	1.4
284.282	1.39
284.659	1.51
285.035	1.42
285.412	1.47
285.789	1.6
286.166	1.56
286.543	1.48
286.919	1.52
287.296	1.44
287.673	1.7
288.049	1.49
288.426	1.57
288.802	1.57
289.179	1.54
289.555	1.84
289.932	1.49
290.308	1.41
290.684	1.36
291.061	1.36
291.437	1.57
291.813	1.48
292.189	1.37
292.565	1.33
292.942	1.42
293.318	1.44
293.694	1.54
294.07	1.33
294.446	1.35
294.822	1.56
295.197	1.64
295.573	1.4
295.949	1.46
296.325	1.59
296.701	1.55
297.076	1.62
297.452	1.67
297.828	1.71
298.203	1.57
298.579	1.62
298.954	1.45
299.33	1.43
299.705	1.49
300.081	1.55
300.456	1.57
300.831	1.56
301.206	1.41
301.582	1.58
301.957	1.57
302.332	1.61
302.707	1.49
303.082	1.43
303.457	1.41
303.832	1.38
304.207	1.36
304.582	1.45
304.957	1.48
305.332	1.56
305.707	1.42
306.082	1.5
306.456	1.58
306.831	1.41
307.206	1.48
307.58	1.48
307.955	1.36
308.33	1.46
308.704	1.4
309.079	1.42
309.453	1.57
309.828	1.4
310.202	1.35
310.576	1.53
310.951	1.46
311.325	1.57
311.699	1.42
312.073	1.39
312.447	1.52
312.821	1.34
313.196	1.53
313.57	1.46
313.944	1.46
314.317	1.32
314.691	1.56
315.065	1.47
315.439	1.39
315.813	1.42
316.187	1.47
316.56	1.62
316.934	1.46
317.308	1.36
317.681	1.42
318.055	1.42
318.428	1.45
318.802	1.47
319.175	1.55
319.549	1.6
319.922	1.33
320.295	1.39
320.669	1.59
321.042	1.5
321.415	1.74
321.788	1.59
322.162	1.42
322.535	1.54
322.908	1.55
323.281	1.44
323.654	1.54
324.027	1.51
324.4	1.52
324.773	1.61
325.145	1.58
325.518	1.57
325.891	1.44
326.264	1.63
326.636	1.38
327.009	1.53
327.382	1.41
327.754	1.61
328.127	1.44
328.499	1.57
328.872	1.41
329.244	1.47
329.616	1.47
329.989	1.51
330.361	1.6
330.733	1.5
331.106	1.51
331.478	1.66
331.85	1.58
332.222	1.36
332.594	1.54
332.966	1.57
333.338	1.58
333.71	1.61
334.082	1.76
334.454	1.43
334.826	1.4
335.197	1.57
335.569	1.57
335.941	1.38
336.312	1.45
336.684	1.45
337.056	1.37
337.427	1.63
337.799	1.6
338.17	1.65
338.542	1.4
338.913	1.7
339.284	1.69
339.656	1.63
340.027	1.57
340.398	1.62
340.769	1.57
341.141	1.58
341.512	1.53
341.883	1.53
342.254	1.63
342.625	1.5
342.996	1.48
343.367	1.5
343.738	1.44
344.108	1.46
344.479	1.53
344.85	1.43
345.221	1.56
345.591	1.35
345.962	1.49
346.333	1.61
346.703	1.27
347.074	1.3
347.444	1.31
347.815	1.42
348.185	1.39
348.556	1.34
348.926	1.32
349.296	1.4
349.666	1.39
350.037	1.34
350.407	1.25
350.777	1.38
351.147	1.35
351.517	1.35
351.887	1.42
352.257	1.41
352.627	1.33
352.997	1.29
353.367	1.4
353.737	1.52
354.106	1.4
354.476	1.32
354.846	1.44
355.216	1.38
355.585	1.38
355.955	1.41
356.324	1.39
356.694	1.35
357.063	1.29
357.433	1.24
357.802	1.31
358.171	1.36
358.541	1.35
358.91	1.35
359.279	1.33
359.648	1.28
360.017	1.29
360.387	1.32
360.756	1.2
361.125	1.34
361.494	1.34
361.863	1.27
362.231	1.3
362.6	1.24
362.969	1.28
363.338	1.19
363.707	1.37
364.075	1.35
364.444	1.18
364.813	1.22
365.181	1.22
365.55	1.23
365.918	1.26
366.287	1.24
366.655	1.29
367.024	1.26
367.392	1.29
367.76	1.26
368.128	1.24
368.497	1.24
368.865	1.2
369.233	1.22
369.601	1.26
369.969	1.24
370.337	1.22
370.705	1.27
371.073	1.24
371.441	1.28
371.809	1.27
372.177	1.23
372.544	1.23
372.912	1.23
373.28	1.25
373.647	1.27
374.015	1.33
374.383	1.35
374.75	1.39
375.118	1.22
375.485	1.28
375.853	1.23
376.22	1.26
376.587	1.31
376.955	1.31
377.322	1.33
377.689	1.29
378.056	1.2
378.423	1.26
378.79	1.27
379.157	1.29
379.524	1.37
379.891	1.21
380.258	1.31
380.625	1.27
380.992	1.3
381.359	1.33
381.726	1.42
382.092	1.26
382.459	1.31
382.826	1.36
383.192	1.34
383.559	1.29
383.925	1.28
384.292	1.29
384.658	1.48
385.025	1.42
385.391	1.43
385.757	1.32
386.123	1.36
386.49	1.38
386.856	1.44
387.222	1.46
387.588	1.4
387.954	1.49
388.32	1.53
388.686	1.49
389.052	1.32
389.418	1.36
389.784	1.38
390.15	1.48
390.515	1.29
390.881	1.51
391.247	1.4
391.613	1.45
391.978	1.37
392.344	1.49
392.709	1.44
393.075	1.51
393.44	1.46
393.806	1.51
394.171	1.31
394.536	1.47
394.902	1.38
395.267	1.35
395.632	1.29
395.997	1.29
396.362	1.28
396.727	1.44
397.092	1.35
397.457	1.39
397.822	1.36
398.187	1.4
398.552	1.34
398.917	1.42
399.282	1.28
399.646	1.4
400.011	1.43
400.376	1.31
400.74	1.29
401.105	1.35
401.47	1.36
401.834	1.43
402.199	1.29
402.563	1.33
402.927	1.3
403.292	1.32
403.656	1.34
404.02	1.26
404.384	1.3
404.749	1.27
405.113	1.26
405.477	1.3
405.841	1.26
406.205	1.2
406.569	1.25
406.933	1.24
407.296	1.2
407.66	1.23
408.024	1.25
408.388	1.24
408.752	1.2
409.115	1.2
409.479	1.22
409.842	1.16
410.206	1.12
410.569	1.11
410.933	1.16
411.296	1.07
411.66	1.14
412.023	1.09
412.386	1.13
412.749	1.08
413.113	1.15
413.476	1.08
413.839	1.13
414.202	1.09
414.565	1.11
414.928	1.08
415.291	1.06
415.654	1.02
416.017	1.08
416.38	1.09
416.742	1
417.105	1.03
417.468	1.06
417.83	1.03
418.193	1.06
418.556	1.03
418.918	1
419.281	1.03
419.643	1.07
420.005	1.08
420.368	1.08
420.73	1.02
421.092	1.04
421.455	1.05
421.817	0.93
422.179	1.01
422.541	1.01
422.903	1.02
423.265	1.05
423.627	0.99
423.989	1.02
424.351	0.96
424.713	1
425.075	0.98
425.436	1.01
425.798	0.95
426.16	0.97
426.521	0.95
426.883	1.01
427.245	0.98
427.606	0.92
427.967	0.96
428.329	0.93
428.69	0.98
429.052	0.96
429.413	0.94
429.774	0.97
430.135	0.94
430.497	0.95
430.858	0.94
431.219	0.93
431.58	0.93
431.941	0.94
432.302	0.94
432.663	0.94
433.024	0.95
433.384	0.93
433.745	0.9
434.106	0.92
434.467	0.95
434.827	0.9
435.188	0.91
435.548	0.92
435.909	0.9
436.269	0.9
436.63	0.88
436.99	0.89
437.351	0.89
437.711	0.87
438.071	0.85
438.431	0.88
438.792	0.87
439.152	0.86
439.512	0.86
439.872	0.83
440.232	0.85
440.592	0.84
440.952	0.85
441.312	0.84
441.671	0.84
442.031	0.83
442.391	0.84
442.751	0.83
443.11	0.83
443.47	0.82
443.83	0.79
444.189	0.8
444.549	0.79
444.908	0.77
445.267	0.79
445.627	0.77
445.986	0.77
446.345	0.75
446.705	0.78
447.064	0.78
447.423	0.75
447.782	0.75
448.141	0.73
448.5	0.73
448.859	0.75
449.218	0.73
449.577	0.73
449.936	0.74
450.295	0.72
450.653	0.72
451.012	0.7
451.371	0.71
451.729	0.71
452.088	0.72
452.447	0.7
452.805	0.7
453.163	0.7
453.522	0.69
453.88	0.69
454.239	0.68
454.597	0.67
454.955	0.67
455.313	0.67
455.671	0.67
456.029	0.65
456.388	0.65
456.746	0.62
457.104	0.63
457.461	0.61
457.819	0.62
458.177	0.61
458.535	0.59
458.893	0.6
459.25	0.59
459.608	0.59
459.966	0.57
460.323	0.57
460.681	0.55
461.038	0.56
461.396	0.55
461.753	0.54
462.111	0.53
462.468	0.52
462.825	0.52
463.182	0.52
463.54	0.52
463.897	0.52
464.254	0.51
464.611	0.5
464.968	0.49
465.325	0.5
465.682	0.48
466.039	0.48
466.395	0.47
466.752	0.47
467.109	0.47
467.466	0.46
467.822	0.45
468.179	0.45
468.535	0.44
468.892	0.44
469.248	0.42
469.605	0.42
469.961	0.43
470.318	0.44
470.674	0.43
471.03	0.41
471.386	0.41
471.743	0.4
472.099	0.39
472.455	0.39
472.811	0.38
473.167	0.39
473.523	0.37
473.879	0.37
474.235	0.35
474.59	0.35
474.946	0.35
475.302	0.34
475.657	0.35
476.013	0.34
476.369	0.34
476.724	0.34
477.08	0.34
477.435	0.32
477.791	0.32
478.146	0.32
478.501	0.32
478.857	0.32
479.212	0.31
479.567	0.31
479.922	0.29
480.277	0.3
480.632	0.29
480.987	0.29
481.342	0.29
481.697	0.28
482.052	0.28
482.407	0.27
482.762	0.27
483.116	0.27
483.471	0.25
483.826	0.25
484.18	0.25
484.535	0.25
484.89	0.25
485.244	0.24
485.598	0.25
485.953	0.24
486.307	0.23
486.661	0.25
487.016	0.24
487.37	0.24
487.724	0.24
488.078	0.23
488.432	0.23
488.786	0.22
489.14	0.23
489.494	0.21
489.848	0.21
490.202	0.22
490.556	0.21
490.91	0.21
491.263	0.21
491.617	0.21
491.971	0.2
492.324	0.21
492.678	0.21
493.031	0.21
493.385	0.2
493.738	0.19
494.091	0.19
494.445	0.2
494.798	0.2
495.151	0.19
495.504	0.19
495.857	0.19
496.21	0.19
496.564	0.18
496.916	0.2
497.269	0.18
497.622	0.19
497.975	0.19
498.328	0.19
498.681	0.18
499.033	0.18
499.386	0.18
499.739	0.18
500.091	0.18
500.444	0.18
500.796	0.17
501.149	0.17
501.501	0.17
501.854	0.17
502.206	0.17
502.558	0.17
502.91	0.18
503.263	0.17
503.615	0.17
503.967	0.16
504.319	0.17
504.671	0.17
505.023	0.16
505.375	0.17
505.726	0.16
506.078	0.17
506.43	0.16
506.782	0.16
507.133	0.16
507.485	0.16
507.837	0.16
508.188	0.16
508.54	0.16
508.891	0.17
509.243	0.16
509.594	0.16
509.945	0.16
510.296	0.16
510.648	0.16
510.999	0.15
511.35	0.16
511.701	0.16
512.052	0.16
512.403	0.16
512.754	0.16
513.105	0.16
513.456	0.15
513.807	0.16
514.157	0.16
514.508	0.16
514.859	0.15
515.209	0.15
515.56	0.16
515.91	0.14
516.261	0.15
516.611	0.14
516.962	0.16
517.312	0.15
517.662	0.14
518.013	0.15
518.363	0.15
518.713	0.15
519.063	0.15
519.413	0.15
519.763	0.15
520.113	0.15
520.463	0.15
520.813	0.16
521.163	0.16
521.512	0.15
521.862	0.15
522.212	0.15
522.562	0.16
522.911	0.15
523.261	0.15
523.61	0.15
523.96	0.15
524.309	0.15
524.658	0.15
525.008	0.15
525.357	0.16
525.706	0.15
526.056	0.15
526.405	0.16
526.754	0.16
527.103	0.16
527.452	0.15
527.801	0.15
528.15	0.16
528.499	0.16
528.847	0.16
529.196	0.16
529.545	0.16
529.893	0.17
530.242	0.15
530.591	0.16
530.939	0.17
531.288	0.16
531.636	0.17
531.985	0.16
532.333	0.16
532.681	0.16
533.029	0.17
533.378	0.17
533.726	0.16
534.074	0.17
534.422	0.16
534.77	0.17
535.118	0.16
535.466	0.16
535.814	0.16
536.162	0.16
536.509	0.17
536.857	0.16
537.205	0.17
537.552	0.17
537.9	0.17
538.248	0.17
538.595	0.16
538.943	0.16
539.29	0.16
539.637	0.16
539.985	0.16
540.332	0.16
540.679	0.16
541.026	0.15
541.373	0.16
541.721	0.15
542.068	0.16
542.415	0.16
542.762	0.15
543.108	0.15
543.455	0.15
543.802	0.15
544.149	0.15
544.496	0.15
544.842	0.16
545.189	0.14
545.535	0.15
545.882	0.16
546.228	0.15
546.575	0.14
546.921	0.15
547.267	0.15
547.614	0.15
547.96	0.16
548.306	0.15
548.652	0.15
548.998	0.16
549.344	0.16
549.69	0.15
550.036	0.16
550.382	0.15
550.728	0.16
551.074	0.17
551.42	0.16
551.765	0.16
552.111	0.17
552.457	0.17
552.802	0.16
553.148	0.16
553.493	0.16
553.839	0.16
554.184	0.17
554.529	0.16
554.875	0.17
555.22	0.17
555.565	0.16
555.91	0.17
556.255	0.18
556.6	0.17
556.945	0.16
557.29	0.16
557.635	0.17
557.98	0.17
558.325	0.17
558.67	0.17
559.014	0.17
559.359	0.16
559.704	0.16
560.048	0.16
560.393	0.16
560.737	0.16
561.082	0.17
561.426	0.16
561.77	0.16
562.115	0.15
562.459	0.16
562.803	0.14
563.147	0.16
563.491	0.16
563.835	0.16
564.179	0.15
564.523	0.16
564.867	0.15
565.211	0.16
565.555	0.17
565.899	0.17
566.242	0.17
566.586	0.15
566.93	0.16
567.273	0.17
567.617	0.17
567.96	0.16
568.304	0.17
568.647	0.16
568.99	0.16
569.334	0.18
569.677	0.16
570.02	0.16
570.363	0.17
570.706	0.16
571.049	0.16
571.392	0.17
571.735	0.16
572.078	0.17
572.421	0.17
572.764	0.16
573.106	0.17
573.449	0.16
573.792	0.16
574.134	0.16
574.477	0.17
574.819	0.16
575.162	0.17
575.504	0.16
575.847	0.17
576.189	0.17
576.531	0.16
576.873	0.16
577.215	0.16
577.558	0.16
577.9	0.16
578.242	0.16
578.584	0.16
578.926	0.16
579.267	0.16
579.609	0.16
579.951	0.16
580.293	0.16
580.634	0.17
580.976	0.17
581.318	0.16
581.659	0.15
582.001	0.16
582.342	0.16
582.683	0.16
583.025	0.15
583.366	0.15
583.707	0.16
584.049	0.16
584.39	0.16
584.731	0.16
585.072	0.15
585.413	0.17
585.754	0.16
586.095	0.17
586.435	0.17
586.776	0.17
587.117	0.17
587.458	0.16
587.798	0.17
588.139	0.16
588.48	0.16
588.82	0.16
589.161	0.16
589.501	0.16
589.841	0.16
590.182	0.16
590.522	0.16
590.862	0.16
591.202	0.16
591.542	0.16
591.882	0.16
592.222	0.15
592.562	0.16
592.902	0.16
593.242	0.15
593.582	0.16
593.922	0.16
594.261	0.16
594.601	0.16
594.941	0.16
595.28	0.16
595.62	0.16
595.959	0.16
596.299	0.16
596.638	0.16
596.977	0.16
597.317	0.16
597.656	0.16
597.995	0.15
598.334	0.16
598.673	0.15
599.012	0.15
599.351	0.16
599.69	0.15
600.029	0.15
600.368	0.16
600.707	0.15
601.046	0.17
601.384	0.16
601.723	0.15
602.061	0.15
602.4	0.16
602.738	0.16
603.077	0.16
603.415	0.15
603.754	0.16
604.092	0.16
604.43	0.15
604.768	0.15
605.107	0.16
605.445	0.15
605.783	0.16
606.121	0.15
606.459	0.16
606.796	0.16
607.134	0.15
607.472	0.15
607.81	0.15
608.148	0.16
608.485	0.15
608.823	0.16
609.16	0.15
609.498	0.15
609.835	0.15
610.173	0.15
610.51	0.15
610.847	0.15
611.185	0.16
611.522	0.16
611.859	0.16
612.196	0.16
612.533	0.16
612.87	0.17
613.207	0.17
613.544	0.16
613.881	0.17
614.217	0.16
614.554	0.17
614.891	0.16
615.228	0.16
615.564	0.16
615.901	0.16
616.237	0.16
616.574	0.17
616.91	0.16
617.246	0.16
617.583	0.16
617.919	0.18
618.255	0.17
618.591	0.17
618.927	0.17
619.263	0.17
619.599	0.18
619.935	0.17
620.271	0.17
620.607	0.17
620.943	0.16
621.279	0.16
621.614	0.16
621.95	0.16
622.286	0.16
622.621	0.16
622.957	0.15
623.292	0.15
623.627	0.15
623.963	0.16
624.298	0.16
624.633	0.15
624.968	0.15
625.304	0.16
625.639	0.15
625.974	0.15
626.309	0.14
626.644	0.15
626.979	0.15
627.313	0.15
627.648	0.14
627.983	0.15
628.318	0.14
628.652	0.14
628.987	0.15
629.321	0.15
629.656	0.15
629.99	0.15
630.325	0.15
630.659	0.15
630.993	0.14
631.327	0.15
631.662	0.15
631.996	0.14
632.33	0.15
632.664	0.15
632.998	0.14
633.332	0.14
633.666	0.14
633.999	0.15
634.333	0.14
634.667	0.14
635.001	0.13
635.334	0.13
635.668	0.13
636.001	0.14
636.335	0.14
636.668	0.14
637.001	0.13
637.335	0.14
637.668	0.14
638.001	0.13
638.334	0.14
638.668	0.13
639.001	0.13
639.334	0.13
639.667	0.14
639.999	0.14
640.332	0.14
640.665	0.13
640.998	0.13
641.331	0.13
641.663	0.13
641.996	0.13
642.328	0.14
642.661	0.14
642.993	0.13
643.326	0.13
643.658	0.13
643.99	0.12
644.323	0.13
644.655	0.13
644.987	0.13
645.319	0.13
645.651	0.14
645.983	0.13
646.315	0.13
646.647	0.14
646.979	0.14
647.31	0.14
647.642	0.14
647.974	0.13
648.305	0.15
648.637	0.14
648.968	0.14
649.3	0.14
649.631	0.14
649.963	0.14
650.294	0.14
650.625	0.14
650.957	0.14
651.288	0.14
651.619	0.14
651.95	0.14
652.281	0.13
652.612	0.14
652.943	0.14
653.274	0.14
653.604	0.13
653.935	0.14
654.266	0.14
654.596	0.13
654.927	0.13
655.258	0.14
655.588	0.14
655.918	0.13
656.249	0.12
656.579	0.14
656.909	0.14
657.24	0.13
657.57	0.14
657.9	0.14
658.23	0.13
658.56	0.14
658.89	0.14
659.22	0.14
659.55	0.14
659.88	0.14
660.209	0.14
660.539	0.15
660.869	0.14
661.198	0.14
661.528	0.14
661.857	0.14
662.187	0.14
662.516	0.14
662.846	0.13
663.175	0.14
663.504	0.14
663.833	0.13
664.163	0.14
664.492	0.12
664.821	0.14
665.15	0.13
665.479	0.13
665.807	0.13
666.136	0.13
666.465	0.12
666.794	0.13
667.122	0.13
667.451	0.13
667.78	0.13
668.108	0.12
668.437	0.12
668.765	0.12
669.093	0.13
669.422	0.13
669.75	0.13
670.078	0.13
670.406	0.13
670.734	0.13
671.062	0.13
671.39	0.12
671.718	0.13
672.046	0.13
672.374	0.13
672.702	0.12
673.029	0.12
673.357	0.13
673.685	0.13
674.012	0.13
674.34	0.12
674.667	0.13
674.995	0.12
675.322	0.12
675.649	0.12
675.977	0.12
676.304	0.12
676.631	0.12
676.958	0.11
677.285	0.12
677.612	0.11
677.939	0.12
678.266	0.12
678.593	0.11
678.92	0.11
679.246	0.11
679.573	0.11
679.9	0.11
680.226	0.11
680.553	0.1
680.879	0.11
681.206	0.11
681.532	0.11
681.858	0.11
682.184	0.11
682.511	0.11
682.837	0.1
683.163	0.11
683.489	0.11
683.815	0.11
684.141	0.11
684.467	0.11
684.793	0.11
685.118	0.11
685.444	0.11
685.77	0.11
686.095	0.11
686.421	0.11
686.746	0.11
687.072	0.12
687.397	0.11
687.723	0.12
688.048	0.11
688.373	0.11
688.698	0.12
689.023	0.11
689.349	0.12
689.674	0.11
689.999	0.11
690.323	0.1
690.648	0.1
690.973	0.1
691.298	0.1
691.623	0.1
691.947	0.1
692.272	0.1
692.596	0.1
692.921	0.1
693.245	0.1
693.57	0.1
693.894	0.1
694.218	0.1
694.543	0.09
694.867	0.1
695.191	0.09
695.515	0.1
695.839	0.1
696.163	0.09
696.487	0.09
696.811	0.09
697.135	0.1
697.458	0.1
697.782	0.1
698.106	0.1
698.429	0.1
698.753	0.09
699.076	0.09
699.4	0.09
699.723	0.09
700.046	0.08
700.37	0.1
700.693	0.1
701.016	0.1
701.339	0.1
701.662	0.1
701.985	0.1
702.308	0.1
702.631	0.1
702.954	0.1
703.277	0.1
703.599	0.09
703.922	0.09
704.245	0.09
704.567	0.09
704.89	0.09
705.212	0.09
705.535	0.09
705.857	0.09
706.179	0.09
706.502	0.09
706.824	0.08
707.146	0.09
707.468	0.09
707.79	0.09
708.112	0.09
708.434	0.09
708.756	0.08
709.078	0.09
709.399	0.09
709.721	0.09
710.043	0.09
710.364	0.09
710.686	0.09
711.007	0.09
711.329	0.1
711.65	0.09
711.972	0.09
712.293	0.1
712.614	0.1
712.935	0.09
713.256	0.09
713.577	0.1
713.898	0.09
714.219	0.08
714.54	0.08
714.861	0.07
715.182	0.08
715.503	0.08
715.823	0.08
716.144	0.08
716.464	0.08
716.785	0.08
717.105	0.08
717.426	0.08
717.746	0.08
718.066	0.07
718.387	0.08
718.707	0.07
719.027	0.08
719.347	0.07
719.667	0.08
719.987	0.06
720.307	0.06
720.627	0.06
720.947	0.07
721.266	0.07
721.586	0.06
721.906	0.07
722.225	0.06
722.545	0.06
722.864	0.06
723.184	0.07
723.503	0.07
723.823	0.07
