Data from 12-12-AQDScycling_Absorbance__509__00509.txt Node

Date: Tue Dec 12 13:03:59 EST 2023
User: kyuminlee
Spectrometer: FLMS00943
Trigger mode: 0
Integration Time (sec): 1.000000E-1
Scans to average: 1
Electric dark correction enabled: true
Nonlinearity correction enabled: false
Boxcar width: 0
XAxis mode: Wavelengths
Number of Pixels in Spectrum: 2048
>>>>>Begin Spectral Data<<<<<
179.651	-0
180.037	-0
180.424	-0
180.81	-0.4
181.197	0.06
181.583	-0
181.97	0.17
182.356	-0
182.743	-0
183.129	-0.13
183.515	-0
183.901	-1.83
184.288	0.03
184.674	-0
185.06	-0.77
185.446	-0.57
185.832	-0.97
186.218	0.22
186.604	-0.03
186.99	-0
187.376	0.78
187.762	-0.33
188.148	-0
188.534	1.08
188.92	0.27
189.305	0.03
189.691	0.37
190.077	0.19
190.463	0.09
190.848	0.18
191.234	0.12
191.619	0.2
192.005	0.2
192.391	0.08
192.776	0.19
193.161	0.27
193.547	0.19
193.932	-0.01
194.318	0.07
194.703	0.06
195.088	0.36
195.473	0.16
195.859	0.15
196.244	0.23
196.629	0.17
197.014	0.11
197.399	0.29
197.784	0.34
198.169	0.23
198.554	0.42
198.939	0.12
199.324	0.17
199.709	0.15
200.094	0.15
200.478	0.1
200.863	0.21
201.248	0.22
201.633	0.21
202.017	0.09
202.402	0.16
202.787	0.08
203.171	0.29
203.556	0.24
203.94	0.24
204.325	0.16
204.709	0.25
205.093	0.25
205.478	0.16
205.862	0.16
206.246	0.2
206.631	0.15
207.015	0.14
207.399	0.19
207.783	0.19
208.167	0.16
208.551	0.28
208.935	0.29
209.319	0.09
209.703	0.3
210.087	0.21
210.471	0.01
210.855	0.31
211.239	0.38
211.623	0.39
212.007	0.52
212.39	0.41
212.774	0.12
213.158	0.22
213.541	0.28
213.925	0.22
214.309	0.34
214.692	0.37
215.076	0.23
215.459	0.24
215.842	0.19
216.226	0.34
216.609	0.34
216.993	0.27
217.376	0.55
217.759	0.18
218.142	0.32
218.525	0.48
218.909	0.38
219.292	0.32
219.675	0.43
220.058	0.43
220.441	0.46
220.824	0.48
221.207	0.58
221.59	0.44
221.973	0.58
222.355	0.64
222.738	0.83
223.121	0.68
223.504	0.61
223.886	0.79
224.269	0.74
224.652	0.66
225.034	0.84
225.417	0.77
225.799	0.87
226.182	0.85
226.564	0.82
226.947	0.88
227.329	0.87
227.711	1.02
228.094	1
228.476	0.98
228.858	0.81
229.24	0.85
229.623	0.9
230.005	0.81
230.387	1.03
230.769	0.89
231.151	0.98
231.533	1
231.915	0.99
232.297	1.2
232.679	1.04
233.061	1.16
233.442	1.04
233.824	1.17
234.206	1.03
234.588	1.05
234.969	1.21
235.351	1.05
235.733	1.08
236.114	1.17
236.496	1.24
236.877	1.04
237.259	1.08
237.64	1.05
238.022	1.11
238.403	0.99
238.784	1.15
239.165	1.04
239.547	1.08
239.928	1.08
240.309	1.04
240.69	0.97
241.071	1.13
241.452	1.11
241.834	1.15
242.215	1.26
242.595	1.14
242.976	1.17
243.357	1.2
243.738	0.98
244.119	1.39
244.5	1.11
244.881	1.13
245.261	1.15
245.642	1.26
246.023	1.16
246.403	1.17
246.784	1.19
247.164	1.29
247.545	1.33
247.925	1.19
248.306	1.23
248.686	1.53
249.067	1.3
249.447	1.42
249.827	1.59
250.207	1.46
250.588	1.34
250.968	1.36
251.348	1.41
251.728	1.53
252.108	1.43
252.488	1.55
252.868	1.42
253.248	1.36
253.628	1.36
254.008	1.47
254.388	1.35
254.768	1.28
255.147	1.54
255.527	1.49
255.907	1.29
256.287	1.35
256.666	1.36
257.046	1.34
257.425	1.5
257.805	1.31
258.184	1.33
258.564	1.56
258.943	1.47
259.323	1.57
259.702	1.53
260.081	1.61
260.461	1.63
260.84	1.54
261.219	1.96
261.598	1.43
261.977	1.43
262.356	1.62
262.736	1.48
263.115	1.8
263.494	1.46
263.873	1.42
264.251	1.56
264.63	1.67
265.009	1.48
265.388	1.51
265.767	1.36
266.145	1.37
266.524	1.47
266.903	1.54
267.281	1.46
267.66	1.4
268.039	1.56
268.417	1.46
268.796	1.7
269.174	1.57
269.552	1.35
269.931	1.55
270.309	1.42
270.687	1.45
271.066	2.07
271.444	1.4
271.822	1.64
272.2	1.52
272.578	1.5
272.956	1.37
273.334	1.35
273.712	1.49
274.09	1.6
274.468	1.43
274.846	1.29
275.224	1.26
275.602	1.33
275.98	1.84
276.357	1.35
276.735	1.46
277.113	1.53
277.49	1.32
277.868	1.32
278.246	1.44
278.623	1.37
279.001	1.32
279.378	1.54
279.756	1.6
280.133	1.57
280.51	1.45
280.888	1.56
281.265	1.34
281.642	1.39
282.019	1.62
282.396	1.59
282.773	1.48
283.151	1.48
283.528	1.49
283.905	1.48
284.282	1.6
284.659	1.72
285.035	1.32
285.412	1.37
285.789	1.48
286.166	1.48
286.543	1.46
286.919	1.61
287.296	1.53
287.673	1.76
288.049	1.58
288.426	1.64
288.802	1.56
289.179	1.54
289.555	1.77
289.932	1.59
290.308	1.39
290.684	1.35
291.061	1.38
291.437	1.55
291.813	1.44
292.189	1.28
292.565	1.53
292.942	1.33
293.318	1.44
293.694	1.53
294.07	1.45
294.446	1.42
294.822	1.52
295.197	1.56
295.573	1.47
295.949	1.52
296.325	1.49
296.701	1.5
297.076	1.61
297.452	1.62
297.828	1.49
298.203	1.57
298.579	1.49
298.954	1.53
299.33	1.36
299.705	1.38
300.081	1.55
300.456	1.52
300.831	1.47
301.206	1.45
301.582	1.69
301.957	1.51
302.332	1.8
302.707	1.4
303.082	1.47
303.457	1.59
303.832	1.56
304.207	1.54
304.582	1.53
304.957	1.58
305.332	1.56
305.707	1.49
306.082	1.53
306.456	1.56
306.831	1.46
307.206	1.64
307.58	1.53
307.955	1.47
308.33	1.54
308.704	1.62
309.079	1.54
309.453	1.63
309.828	1.44
310.202	1.41
310.576	1.47
310.951	1.4
311.325	1.66
311.699	1.42
312.073	1.5
312.447	1.49
312.821	1.42
313.196	1.59
313.57	1.51
313.944	1.46
314.317	1.3
314.691	1.49
315.065	1.58
315.439	1.53
315.813	1.56
316.187	1.4
316.56	1.58
316.934	1.49
317.308	1.4
317.681	1.53
318.055	1.43
318.428	1.39
318.802	1.6
319.175	1.53
319.549	1.66
319.922	1.31
320.295	1.41
320.669	1.6
321.042	1.58
321.415	1.69
321.788	1.54
322.162	1.39
322.535	1.71
322.908	1.52
323.281	1.46
323.654	1.65
324.027	1.4
324.4	1.55
324.773	1.6
325.145	1.58
325.518	1.46
325.891	1.44
326.264	1.55
326.636	1.42
327.009	1.39
327.382	1.41
327.754	1.58
328.127	1.47
328.499	1.5
328.872	1.57
329.244	1.6
329.616	1.57
329.989	1.54
330.361	1.55
330.733	1.5
331.106	1.47
331.478	1.57
331.85	1.51
332.222	1.48
332.594	1.54
332.966	1.6
333.338	1.57
333.71	1.69
334.082	1.63
334.454	1.56
334.826	1.51
335.197	1.59
335.569	1.57
335.941	1.46
336.312	1.47
336.684	1.57
337.056	1.5
337.427	1.59
337.799	1.57
338.17	1.49
338.542	1.52
338.913	1.49
339.284	1.74
339.656	1.6
340.027	1.6
340.398	1.44
340.769	1.62
341.141	1.63
341.512	1.53
341.883	1.5
342.254	1.62
342.625	1.58
342.996	1.57
343.367	1.62
343.738	1.5
344.108	1.46
344.479	1.59
344.85	1.43
345.221	1.63
345.591	1.32
345.962	1.51
346.333	1.47
346.703	1.28
347.074	1.49
347.444	1.37
347.815	1.51
348.185	1.46
348.556	1.37
348.926	1.37
349.296	1.33
349.666	1.35
350.037	1.34
350.407	1.34
350.777	1.39
351.147	1.51
351.517	1.48
351.887	1.36
352.257	1.43
352.627	1.27
352.997	1.29
353.367	1.41
353.737	1.45
354.106	1.36
354.476	1.37
354.846	1.42
355.216	1.53
355.585	1.43
355.955	1.33
356.324	1.46
356.694	1.38
357.063	1.38
357.433	1.31
357.802	1.37
358.171	1.4
358.541	1.33
358.91	1.36
359.279	1.36
359.648	1.34
360.017	1.32
360.387	1.37
360.756	1.21
361.125	1.3
361.494	1.38
361.863	1.32
362.231	1.33
362.6	1.3
362.969	1.32
363.338	1.25
363.707	1.36
364.075	1.35
364.444	1.21
364.813	1.23
365.181	1.27
365.55	1.22
365.918	1.3
366.287	1.24
366.655	1.39
367.024	1.22
367.392	1.31
367.76	1.26
368.128	1.23
368.497	1.24
368.865	1.27
369.233	1.26
369.601	1.23
369.969	1.23
370.337	1.23
370.705	1.21
371.073	1.27
371.441	1.24
371.809	1.17
372.177	1.21
372.544	1.23
372.912	1.27
373.28	1.37
373.647	1.34
374.015	1.29
374.383	1.35
374.75	1.4
375.118	1.25
375.485	1.31
375.853	1.35
376.22	1.29
376.587	1.28
376.955	1.27
377.322	1.29
377.689	1.28
378.056	1.29
378.423	1.34
378.79	1.3
379.157	1.26
379.524	1.35
379.891	1.3
380.258	1.4
380.625	1.33
380.992	1.32
381.359	1.42
381.726	1.5
382.092	1.32
382.459	1.37
382.826	1.32
383.192	1.37
383.559	1.34
383.925	1.45
384.292	1.34
384.658	1.49
385.025	1.47
385.391	1.48
385.757	1.45
386.123	1.5
386.49	1.38
386.856	1.41
387.222	1.49
387.588	1.41
387.954	1.52
388.32	1.46
388.686	1.38
389.052	1.34
389.418	1.46
389.784	1.43
390.15	1.46
390.515	1.28
390.881	1.44
391.247	1.36
391.613	1.57
391.978	1.35
392.344	1.47
392.709	1.47
393.075	1.47
393.44	1.45
393.806	1.49
394.171	1.4
394.536	1.4
394.902	1.47
395.267	1.33
395.632	1.38
395.997	1.43
396.362	1.34
396.727	1.45
397.092	1.47
397.457	1.48
397.822	1.37
398.187	1.46
398.552	1.39
398.917	1.52
399.282	1.35
399.646	1.38
400.011	1.55
400.376	1.38
400.74	1.42
401.105	1.34
401.47	1.36
401.834	1.37
402.199	1.33
402.563	1.36
402.927	1.27
403.292	1.48
403.656	1.38
404.02	1.33
404.384	1.37
404.749	1.27
405.113	1.28
405.477	1.33
405.841	1.31
406.205	1.26
406.569	1.27
406.933	1.24
407.296	1.25
407.66	1.23
408.024	1.29
408.388	1.28
408.752	1.17
409.115	1.28
409.479	1.28
409.842	1.25
410.206	1.18
410.569	1.15
410.933	1.18
411.296	1.12
411.66	1.18
412.023	1.13
412.386	1.17
412.749	1.08
413.113	1.18
413.476	1.09
413.839	1.11
414.202	1.16
414.565	1.08
414.928	1.11
415.291	1.01
415.654	1.09
416.017	1.11
416.38	1.07
416.742	1.05
417.105	1.01
417.468	1.02
417.83	1.07
418.193	1.19
418.556	1.03
418.918	1.01
419.281	1.1
419.643	1.09
420.005	1.04
420.368	1.09
420.73	1.04
421.092	1.04
421.455	1.07
421.817	0.99
422.179	1.01
422.541	1.01
422.903	1.06
423.265	1.09
423.627	1.03
423.989	1.03
424.351	1.02
424.713	1.01
425.075	0.99
425.436	0.99
425.798	1.01
426.16	1.01
426.521	1.03
426.883	0.99
427.245	1.03
427.606	0.94
427.967	0.97
428.329	0.98
428.69	1.05
429.052	0.98
429.413	0.93
429.774	0.97
430.135	0.99
430.497	0.97
430.858	0.94
431.219	0.93
431.58	0.96
431.941	0.94
432.302	0.94
432.663	0.95
433.024	0.96
433.384	0.94
433.745	0.96
434.106	0.94
434.467	0.93
434.827	0.91
435.188	0.91
435.548	0.95
435.909	0.9
436.269	0.96
436.63	0.91
436.99	0.89
437.351	0.9
437.711	0.9
438.071	0.9
438.431	0.89
438.792	0.9
439.152	0.88
439.512	0.88
439.872	0.86
440.232	0.9
440.592	0.88
440.952	0.87
441.312	0.84
441.671	0.83
442.031	0.83
442.391	0.82
442.751	0.86
443.11	0.83
443.47	0.79
443.83	0.8
444.189	0.8
444.549	0.83
444.908	0.81
445.267	0.81
445.627	0.81
445.986	0.78
446.345	0.76
446.705	0.77
447.064	0.8
447.423	0.77
447.782	0.77
448.141	0.77
448.5	0.73
448.859	0.75
449.218	0.75
449.577	0.75
449.936	0.75
450.295	0.74
450.653	0.73
451.012	0.73
451.371	0.73
451.729	0.72
452.088	0.72
452.447	0.72
452.805	0.71
453.163	0.71
453.522	0.71
453.88	0.69
454.239	0.69
454.597	0.68
454.955	0.67
455.313	0.67
455.671	0.67
456.029	0.65
456.388	0.65
456.746	0.66
457.104	0.64
457.461	0.64
457.819	0.63
458.177	0.62
458.535	0.61
458.893	0.61
459.25	0.6
459.608	0.6
459.966	0.58
460.323	0.57
460.681	0.56
461.038	0.58
461.396	0.56
461.753	0.56
462.111	0.55
462.468	0.54
462.825	0.53
463.182	0.54
463.54	0.53
463.897	0.53
464.254	0.52
464.611	0.52
464.968	0.51
465.325	0.51
465.682	0.49
466.039	0.49
466.395	0.48
466.752	0.48
467.109	0.48
467.466	0.47
467.822	0.46
468.179	0.47
468.535	0.45
468.892	0.44
469.248	0.44
469.605	0.43
469.961	0.43
470.318	0.43
470.674	0.42
471.03	0.42
471.386	0.42
471.743	0.41
472.099	0.41
472.455	0.41
472.811	0.4
473.167	0.4
473.523	0.38
473.879	0.38
474.235	0.37
474.59	0.37
474.946	0.36
475.302	0.36
475.657	0.35
476.013	0.34
476.369	0.35
476.724	0.34
477.08	0.35
477.435	0.33
477.791	0.33
478.146	0.33
478.501	0.32
478.857	0.32
479.212	0.32
479.567	0.31
479.922	0.3
480.277	0.31
480.632	0.31
480.987	0.3
481.342	0.29
481.697	0.29
482.052	0.29
482.407	0.28
482.762	0.28
483.116	0.27
483.471	0.27
483.826	0.27
484.18	0.26
484.535	0.26
484.89	0.26
485.244	0.25
485.598	0.26
485.953	0.25
486.307	0.25
486.661	0.25
487.016	0.24
487.37	0.25
487.724	0.24
488.078	0.24
488.432	0.23
488.786	0.23
489.14	0.23
489.494	0.23
489.848	0.22
490.202	0.22
490.556	0.22
490.91	0.21
491.263	0.22
491.617	0.22
491.971	0.21
492.324	0.21
492.678	0.21
493.031	0.21
493.385	0.21
493.738	0.21
494.091	0.21
494.445	0.2
494.798	0.2
495.151	0.2
495.504	0.2
495.857	0.2
496.21	0.2
496.564	0.18
496.916	0.19
497.269	0.18
497.622	0.19
497.975	0.18
498.328	0.19
498.681	0.18
499.033	0.18
499.386	0.19
499.739	0.18
500.091	0.18
500.444	0.18
500.796	0.18
501.149	0.18
501.501	0.18
501.854	0.17
502.206	0.17
502.558	0.17
502.91	0.18
503.263	0.17
503.615	0.17
503.967	0.17
504.319	0.18
504.671	0.17
505.023	0.17
505.375	0.17
505.726	0.17
506.078	0.17
506.43	0.17
506.782	0.17
507.133	0.17
507.485	0.17
507.837	0.17
508.188	0.17
508.54	0.17
508.891	0.18
509.243	0.17
509.594	0.17
509.945	0.16
510.296	0.17
510.648	0.17
510.999	0.17
511.35	0.17
511.701	0.17
512.052	0.17
512.403	0.17
512.754	0.16
513.105	0.16
513.456	0.16
513.807	0.16
514.157	0.17
514.508	0.16
514.859	0.16
515.209	0.16
515.56	0.17
515.91	0.15
516.261	0.17
516.611	0.15
516.962	0.16
517.312	0.16
517.662	0.16
518.013	0.17
518.363	0.17
518.713	0.16
519.063	0.17
519.413	0.16
519.763	0.16
520.113	0.16
520.463	0.17
520.813	0.17
521.163	0.17
521.512	0.17
521.862	0.16
522.212	0.16
522.562	0.16
522.911	0.17
523.261	0.16
523.61	0.17
523.96	0.16
524.309	0.17
524.658	0.17
525.008	0.16
525.357	0.16
525.706	0.17
526.056	0.16
526.405	0.16
526.754	0.16
527.103	0.16
527.452	0.16
527.801	0.17
528.15	0.17
528.499	0.17
528.847	0.17
529.196	0.17
529.545	0.17
529.893	0.17
530.242	0.17
530.591	0.18
530.939	0.17
531.288	0.17
531.636	0.18
531.985	0.18
532.333	0.17
532.681	0.17
533.029	0.17
533.378	0.17
533.726	0.17
534.074	0.18
534.422	0.17
534.77	0.18
535.118	0.17
535.466	0.17
535.814	0.17
536.162	0.18
536.509	0.18
536.857	0.18
537.205	0.18
537.552	0.18
537.9	0.18
538.248	0.17
538.595	0.17
538.943	0.18
539.29	0.17
539.637	0.17
539.985	0.18
540.332	0.17
540.679	0.18
541.026	0.17
541.373	0.18
541.721	0.17
542.068	0.17
542.415	0.17
542.762	0.17
543.108	0.17
543.455	0.16
543.802	0.16
544.149	0.17
544.496	0.17
544.842	0.17
545.189	0.16
545.535	0.16
545.882	0.16
546.228	0.16
546.575	0.16
546.921	0.16
547.267	0.17
547.614	0.17
547.96	0.17
548.306	0.17
548.652	0.17
548.998	0.18
549.344	0.18
549.69	0.16
550.036	0.16
550.382	0.17
550.728	0.16
551.074	0.17
551.42	0.17
551.765	0.17
552.111	0.17
552.457	0.19
552.802	0.17
553.148	0.17
553.493	0.16
553.839	0.17
554.184	0.18
554.529	0.16
554.875	0.18
555.22	0.18
555.565	0.17
555.91	0.17
556.255	0.17
556.6	0.17
556.945	0.17
557.29	0.17
557.635	0.17
557.98	0.17
558.325	0.18
558.67	0.18
559.014	0.18
559.359	0.18
559.704	0.18
560.048	0.17
560.393	0.17
560.737	0.16
561.082	0.17
561.426	0.17
561.77	0.17
562.115	0.17
562.459	0.17
562.803	0.17
563.147	0.18
563.491	0.18
563.835	0.17
564.179	0.17
564.523	0.17
564.867	0.17
565.211	0.17
565.555	0.17
565.899	0.18
566.242	0.18
566.586	0.17
566.93	0.17
567.273	0.17
567.617	0.18
567.96	0.18
568.304	0.18
568.647	0.17
568.99	0.18
569.334	0.18
569.677	0.18
570.02	0.18
570.363	0.18
570.706	0.17
571.049	0.18
571.392	0.18
571.735	0.18
572.078	0.19
572.421	0.19
572.764	0.17
573.106	0.18
573.449	0.18
573.792	0.17
574.134	0.18
574.477	0.19
574.819	0.18
575.162	0.18
575.504	0.17
575.847	0.18
576.189	0.18
576.531	0.19
576.873	0.18
577.215	0.18
577.558	0.18
577.9	0.17
578.242	0.18
578.584	0.18
578.926	0.17
579.267	0.18
579.609	0.18
579.951	0.18
580.293	0.18
580.634	0.18
580.976	0.18
581.318	0.17
581.659	0.17
582.001	0.17
582.342	0.17
582.683	0.17
583.025	0.17
583.366	0.17
583.707	0.16
584.049	0.17
584.39	0.17
584.731	0.16
585.072	0.16
585.413	0.18
585.754	0.18
586.095	0.18
586.435	0.17
586.776	0.17
587.117	0.17
587.458	0.17
587.798	0.17
588.139	0.17
588.48	0.16
588.82	0.16
589.161	0.18
589.501	0.18
589.841	0.17
590.182	0.17
590.522	0.17
590.862	0.17
591.202	0.17
591.542	0.17
591.882	0.17
592.222	0.17
592.562	0.17
592.902	0.17
593.242	0.17
593.582	0.17
593.922	0.17
594.261	0.17
594.601	0.17
594.941	0.17
595.28	0.18
595.62	0.17
595.959	0.17
596.299	0.17
596.638	0.17
596.977	0.18
597.317	0.18
597.656	0.18
597.995	0.17
598.334	0.18
598.673	0.18
599.012	0.17
599.351	0.18
599.69	0.17
600.029	0.18
600.368	0.18
600.707	0.17
601.046	0.18
601.384	0.17
601.723	0.18
602.061	0.17
602.4	0.17
602.738	0.18
603.077	0.17
603.415	0.16
603.754	0.18
604.092	0.17
604.43	0.17
604.768	0.17
605.107	0.18
605.445	0.17
605.783	0.16
606.121	0.17
606.459	0.16
606.796	0.17
607.134	0.16
607.472	0.16
607.81	0.17
608.148	0.16
608.485	0.17
608.823	0.17
609.16	0.16
609.498	0.18
609.835	0.16
610.173	0.16
610.51	0.16
610.847	0.17
611.185	0.17
611.522	0.17
611.859	0.17
612.196	0.17
612.533	0.17
612.87	0.18
613.207	0.18
613.544	0.17
613.881	0.18
614.217	0.18
614.554	0.17
614.891	0.17
615.228	0.17
615.564	0.17
615.901	0.18
616.237	0.17
616.574	0.17
616.91	0.19
617.246	0.17
617.583	0.17
617.919	0.18
618.255	0.18
618.591	0.18
618.927	0.17
619.263	0.18
619.599	0.17
619.935	0.18
620.271	0.18
620.607	0.18
620.943	0.17
621.279	0.18
621.614	0.18
621.95	0.18
622.286	0.18
622.621	0.18
622.957	0.17
623.292	0.17
623.627	0.17
623.963	0.17
624.298	0.17
624.633	0.17
624.968	0.16
625.304	0.17
625.639	0.16
625.974	0.17
626.309	0.16
626.644	0.16
626.979	0.17
627.313	0.17
627.648	0.17
627.983	0.17
628.318	0.16
628.652	0.16
628.987	0.16
629.321	0.16
629.656	0.15
629.99	0.16
630.325	0.15
630.659	0.15
630.993	0.15
631.327	0.15
631.662	0.15
631.996	0.15
632.33	0.15
632.664	0.15
632.998	0.15
633.332	0.15
633.666	0.15
633.999	0.16
634.333	0.15
634.667	0.15
635.001	0.15
635.334	0.15
635.668	0.15
636.001	0.14
636.335	0.15
636.668	0.15
637.001	0.14
637.335	0.15
637.668	0.15
638.001	0.15
638.334	0.15
638.668	0.15
639.001	0.15
639.334	0.15
639.667	0.15
639.999	0.15
640.332	0.15
640.665	0.15
640.998	0.15
641.331	0.15
641.663	0.14
641.996	0.14
642.328	0.14
642.661	0.15
642.993	0.14
643.326	0.15
643.658	0.14
643.99	0.14
644.323	0.14
644.655	0.14
644.987	0.14
645.319	0.14
645.651	0.14
645.983	0.14
646.315	0.14
646.647	0.14
646.979	0.15
647.31	0.14
647.642	0.14
647.974	0.14
648.305	0.15
648.637	0.15
648.968	0.15
649.3	0.15
649.631	0.15
649.963	0.14
650.294	0.15
650.625	0.14
650.957	0.16
651.288	0.14
651.619	0.15
651.95	0.15
652.281	0.15
652.612	0.15
652.943	0.14
653.274	0.15
653.604	0.14
653.935	0.14
654.266	0.14
654.596	0.14
654.927	0.14
655.258	0.14
655.588	0.14
655.918	0.14
656.249	0.13
656.579	0.14
656.909	0.14
657.24	0.14
657.57	0.15
657.9	0.14
658.23	0.14
658.56	0.14
658.89	0.15
659.22	0.14
659.55	0.14
659.88	0.15
660.209	0.14
660.539	0.15
660.869	0.15
661.198	0.14
661.528	0.14
661.857	0.14
662.187	0.14
662.516	0.15
662.846	0.14
663.175	0.14
663.504	0.14
663.833	0.14
664.163	0.14
664.492	0.14
664.821	0.14
665.15	0.14
665.479	0.14
665.807	0.13
666.136	0.14
666.465	0.14
666.794	0.14
667.122	0.14
667.451	0.13
667.78	0.14
668.108	0.14
668.437	0.13
668.765	0.14
669.093	0.14
669.422	0.14
669.75	0.14
670.078	0.13
670.406	0.13
670.734	0.14
671.062	0.13
671.39	0.13
671.718	0.13
672.046	0.13
672.374	0.13
672.702	0.13
673.029	0.13
673.357	0.13
673.685	0.14
674.012	0.13
674.34	0.13
674.667	0.13
674.995	0.13
675.322	0.13
675.649	0.12
675.977	0.13
676.304	0.13
676.631	0.13
676.958	0.13
677.285	0.12
677.612	0.12
677.939	0.13
678.266	0.13
678.593	0.13
678.92	0.13
679.246	0.13
679.573	0.13
679.9	0.13
680.226	0.13
680.553	0.12
680.879	0.13
681.206	0.12
681.532	0.12
681.858	0.12
682.184	0.12
682.511	0.13
682.837	0.12
683.163	0.13
683.489	0.12
683.815	0.13
684.141	0.12
684.467	0.12
684.793	0.12
685.118	0.12
685.444	0.12
685.77	0.12
686.095	0.12
686.421	0.12
686.746	0.12
687.072	0.12
687.397	0.12
687.723	0.12
688.048	0.13
688.373	0.13
688.698	0.13
689.023	0.12
689.349	0.12
689.674	0.12
689.999	0.12
690.323	0.12
690.648	0.11
690.973	0.12
691.298	0.12
691.623	0.11
691.947	0.12
692.272	0.12
692.596	0.12
692.921	0.12
693.245	0.12
693.57	0.13
693.894	0.12
694.218	0.12
694.543	0.12
694.867	0.12
695.191	0.12
695.515	0.12
695.839	0.11
696.163	0.12
696.487	0.12
696.811	0.11
697.135	0.12
697.458	0.11
697.782	0.11
698.106	0.11
698.429	0.11
698.753	0.11
699.076	0.11
699.4	0.1
699.723	0.11
700.046	0.11
700.37	0.11
700.693	0.12
701.016	0.11
701.339	0.11
701.662	0.12
701.985	0.11
702.308	0.11
702.631	0.12
702.954	0.12
703.277	0.11
703.599	0.12
703.922	0.11
704.245	0.1
704.567	0.1
704.89	0.1
705.212	0.11
705.535	0.1
705.857	0.1
706.179	0.1
706.502	0.09
706.824	0.1
707.146	0.1
707.468	0.12
707.79	0.11
708.112	0.11
708.434	0.1
708.756	0.11
709.078	0.1
709.399	0.1
709.721	0.1
710.043	0.11
710.364	0.11
710.686	0.1
711.007	0.11
711.329	0.11
711.65	0.1
711.972	0.11
712.293	0.11
712.614	0.11
712.935	0.1
713.256	0.11
713.577	0.11
713.898	0.1
714.219	0.1
714.54	0.11
714.861	0.09
715.182	0.1
715.503	0.09
715.823	0.09
716.144	0.1
716.464	0.09
716.785	0.09
717.105	0.09
717.426	0.09
717.746	0.09
718.066	0.09
718.387	0.09
718.707	0.09
719.027	0.09
719.347	0.09
719.667	0.09
719.987	0.08
720.307	0.08
720.627	0.09
720.947	0.08
721.266	0.09
721.586	0.08
721.906	0.08
722.225	0.08
722.545	0.09
722.864	0.09
