Data from 12-12-AQDScycling_Absorbance__548__00548.txt Node

Date: Tue Dec 12 13:13:44 EST 2023
User: kyuminlee
Spectrometer: FLMS00943
Trigger mode: 0
Integration Time (sec): 1.000000E-1
Scans to average: 1
Electric dark correction enabled: true
Nonlinearity correction enabled: false
Boxcar width: 0
XAxis mode: Wavelengths
Number of Pixels in Spectrum: 2048
>>>>>Begin Spectral Data<<<<<
179.651	-0
180.037	-0
180.424	-0
180.81	0.55
181.197	0.02
181.583	-0
181.97	-0.5
182.356	-0.35
182.743	-0
183.129	0.42
183.515	0.81
183.901	-2.63
184.288	0.27
184.674	0.65
185.06	0.18
185.446	-0
185.832	-1.51
186.218	0.36
186.604	-0
186.99	-0
187.376	-0
187.762	-0
188.148	0.76
188.534	0.52
188.92	0.05
189.305	0.12
189.691	0.3
190.077	0.2
190.463	0.09
190.848	0.23
191.234	0.03
191.619	0.08
192.005	0.17
192.391	0.19
192.776	0.21
193.161	0.09
193.547	0.05
193.932	-0.03
194.318	0.08
194.703	0.15
195.088	0.2
195.473	0.26
195.859	0.09
196.244	0.19
196.629	0.25
197.014	0.23
197.399	0.18
197.784	0.16
198.169	0.5
198.554	0.34
198.939	0.13
199.324	0.18
199.709	0.13
200.094	0.04
200.478	0.24
200.863	0.17
201.248	0.13
201.633	0.24
202.017	0.21
202.402	0.26
202.787	0.08
203.171	0.08
203.556	0.13
203.94	0.15
204.325	0.23
204.709	0.22
205.093	0.16
205.478	0.2
205.862	0.17
206.246	0.22
206.631	0.24
207.015	0.13
207.399	0.34
207.783	0.26
208.167	0.21
208.551	0.27
208.935	0.23
209.319	0.16
209.703	0.29
210.087	0.28
210.471	0.25
210.855	0.26
211.239	0.27
211.623	0.29
212.007	0.35
212.39	0.41
212.774	0.16
213.158	0.1
213.541	0.36
213.925	0.2
214.309	0.28
214.692	0.32
215.076	0.13
215.459	0.16
215.842	0.14
216.226	0.18
216.609	0.23
216.993	0.27
217.376	0.41
217.759	0.25
218.142	0.3
218.525	0.68
218.909	0.25
219.292	0.39
219.675	0.38
220.058	0.37
220.441	0.38
220.824	0.6
221.207	0.64
221.59	0.66
221.973	0.46
222.355	0.58
222.738	0.66
223.121	0.64
223.504	0.65
223.886	0.73
224.269	0.71
224.652	0.63
225.034	0.82
225.417	0.67
225.799	0.76
226.182	0.9
226.564	0.75
226.947	0.88
227.329	0.95
227.711	1.25
228.094	0.96
228.476	0.87
228.858	0.8
229.24	0.87
229.623	0.87
230.005	0.96
230.387	0.83
230.769	0.87
231.151	0.99
231.533	1.13
231.915	0.98
232.297	1.12
232.679	0.99
233.061	0.93
233.442	1.11
233.824	1.05
234.206	1.1
234.588	1
234.969	1.13
235.351	0.93
235.733	1.18
236.114	1.18
236.496	1.07
236.877	1.16
237.259	1
237.64	1.05
238.022	1
238.403	1.12
238.784	0.97
239.165	0.98
239.547	1.05
239.928	1.08
240.309	1.04
240.69	1.11
241.071	1.11
241.452	1.16
241.834	1.06
242.215	1.14
242.595	1.1
242.976	1.2
243.357	1.23
243.738	1.12
244.119	1.19
244.5	1.19
244.881	1.24
245.261	1.31
245.642	1.17
246.023	1.18
246.403	1.17
246.784	1.2
247.164	1.23
247.545	1.35
247.925	1.47
248.306	1.26
248.686	1.41
249.067	1.24
249.447	1.35
249.827	1.83
250.207	1.41
250.588	1.32
250.968	1.52
251.348	1.27
251.728	1.51
252.108	1.42
252.488	1.52
252.868	1.37
253.248	1.34
253.628	1.46
254.008	1.76
254.388	1.33
254.768	1.51
255.147	1.54
255.527	1.49
255.907	1.36
256.287	1.36
256.666	1.37
257.046	1.43
257.425	1.4
257.805	1.42
258.184	1.4
258.564	1.38
258.943	1.56
259.323	1.46
259.702	1.42
260.081	1.49
260.461	1.58
260.84	1.46
261.219	1.74
261.598	1.55
261.977	1.53
262.356	1.52
262.736	1.49
263.115	1.56
263.494	1.44
263.873	1.61
264.251	1.61
264.63	1.52
265.009	1.54
265.388	1.39
265.767	1.48
266.145	1.44
266.524	1.37
266.903	1.47
267.281	1.46
267.66	1.59
268.039	1.51
268.417	1.64
268.796	1.48
269.174	1.45
269.552	1.4
269.931	1.5
270.309	1.44
270.687	1.63
271.066	1.54
271.444	1.36
271.822	1.6
272.2	1.42
272.578	1.54
272.956	1.49
273.334	1.38
273.712	1.5
274.09	1.49
274.468	1.44
274.846	1.41
275.224	1.26
275.602	1.6
275.98	1.6
276.357	1.43
276.735	1.48
277.113	1.39
277.49	1.42
277.868	1.51
278.246	1.46
278.623	1.33
279.001	1.37
279.378	1.29
279.756	1.72
280.133	1.51
280.51	1.4
280.888	1.58
281.265	1.32
281.642	1.4
282.019	1.59
282.396	1.58
282.773	1.52
283.151	1.56
283.528	1.54
283.905	1.47
284.282	1.49
284.659	1.49
285.035	1.31
285.412	1.29
285.789	1.43
286.166	1.45
286.543	1.57
286.919	1.59
287.296	1.44
287.673	1.7
288.049	1.56
288.426	1.59
288.802	1.61
289.179	1.54
289.555	1.7
289.932	1.42
290.308	1.32
290.684	1.37
291.061	1.4
291.437	1.46
291.813	1.32
292.189	1.36
292.565	1.34
292.942	1.42
293.318	1.53
293.694	1.37
294.07	1.34
294.446	1.39
294.822	1.64
295.197	1.39
295.573	1.56
295.949	1.53
296.325	1.58
296.701	1.54
297.076	1.57
297.452	1.54
297.828	1.5
298.203	1.71
298.579	1.37
298.954	1.44
299.33	1.44
299.705	1.38
300.081	1.4
300.456	1.44
300.831	1.34
301.206	1.34
301.582	1.37
301.957	1.36
302.332	1.56
302.707	1.31
303.082	1.32
303.457	1.27
303.832	1.24
304.207	1.27
304.582	1.27
304.957	1.29
305.332	1.28
305.707	1.2
306.082	1.26
306.456	1.29
306.831	1.16
307.206	1.29
307.58	1.21
307.955	1.15
308.33	1.2
308.704	1.21
309.079	1.13
309.453	1.24
309.828	1.13
310.202	1.15
310.576	1.08
310.951	1.14
311.325	1.12
311.699	1.16
312.073	1.06
312.447	1.13
312.821	1.04
313.196	1.14
313.57	1.06
313.944	1.02
314.317	1.01
314.691	1.1
315.065	1.06
315.439	1.1
315.813	1.06
316.187	1.05
316.56	1.09
316.934	1.08
317.308	1.07
317.681	1.08
318.055	1.04
318.428	1.1
318.802	1.11
319.175	1.05
319.549	1.09
319.922	1.01
320.295	1.02
320.669	1.12
321.042	1.04
321.415	1.12
321.788	1.02
322.162	1
322.535	1.04
322.908	1.11
323.281	1.02
323.654	1.06
324.027	1.04
324.4	1.11
324.773	1.04
325.145	1.05
325.518	1.01
325.891	1.06
326.264	1.13
326.636	1.06
327.009	1.03
327.382	1.06
327.754	1.08
328.127	1.03
328.499	1.09
328.872	1.09
329.244	1.12
329.616	1.08
329.989	1.07
330.361	1.09
330.733	1.11
331.106	1.12
331.478	1.22
331.85	1.1
332.222	1.1
332.594	1.14
332.966	1.08
333.338	1.16
333.71	1.15
334.082	1.12
334.454	1.12
334.826	1.15
335.197	1.14
335.569	1.15
335.941	1.1
336.312	1.2
336.684	1.13
337.056	1.18
337.427	1.2
337.799	1.2
338.17	1.18
338.542	1.17
338.913	1.24
339.284	1.27
339.656	1.21
340.027	1.21
340.398	1.26
340.769	1.24
341.141	1.32
341.512	1.25
341.883	1.23
342.254	1.19
342.625	1.23
342.996	1.16
343.367	1.26
343.738	1.23
344.108	1.23
344.479	1.28
344.85	1.13
345.221	1.25
345.591	1.22
345.962	1.35
346.333	1.27
346.703	1.2
347.074	1.18
347.444	1.18
347.815	1.25
348.185	1.25
348.556	1.26
348.926	1.29
349.296	1.34
349.666	1.29
350.037	1.23
350.407	1.25
350.777	1.34
351.147	1.36
351.517	1.34
351.887	1.25
352.257	1.45
352.627	1.21
352.997	1.36
353.367	1.32
353.737	1.31
354.106	1.36
354.476	1.33
354.846	1.47
355.216	1.49
355.585	1.62
355.955	1.41
356.324	1.38
356.694	1.42
357.063	1.42
357.433	1.32
357.802	1.43
358.171	1.49
358.541	1.35
358.91	1.52
359.279	1.57
359.648	1.36
360.017	1.7
360.387	1.53
360.756	1.38
361.125	1.44
361.494	1.66
361.863	1.49
362.231	1.63
362.6	1.55
362.969	1.61
363.338	1.43
363.707	1.59
364.075	1.66
364.444	1.46
364.813	1.52
365.181	1.51
365.55	1.51
365.918	1.66
366.287	1.61
366.655	1.69
367.024	1.55
367.392	1.56
367.76	1.46
368.128	1.54
368.497	1.46
368.865	1.48
369.233	1.41
369.601	1.45
369.969	1.67
370.337	1.48
370.705	1.52
371.073	1.48
371.441	1.6
371.809	1.5
372.177	1.53
372.544	1.56
372.912	1.64
373.28	1.58
373.647	1.63
374.015	1.71
374.383	1.75
374.75	1.71
375.118	1.59
375.485	1.59
375.853	1.61
376.22	1.58
376.587	1.78
376.955	1.77
377.322	1.69
377.689	1.66
378.056	1.55
378.423	1.55
378.79	1.59
379.157	1.58
379.524	1.65
379.891	1.54
380.258	1.58
380.625	1.56
380.992	1.55
381.359	1.53
381.726	1.78
382.092	1.67
382.459	1.51
382.826	1.58
383.192	1.58
383.559	1.59
383.925	1.54
384.292	1.54
384.658	1.76
385.025	1.6
385.391	1.6
385.757	1.61
386.123	1.68
386.49	1.62
386.856	1.77
387.222	1.67
387.588	1.68
387.954	1.76
388.32	1.7
388.686	1.67
389.052	1.58
389.418	1.58
389.784	1.59
390.15	1.61
390.515	1.44
390.881	1.55
391.247	1.47
391.613	1.77
391.978	1.58
392.344	1.78
392.709	1.5
393.075	1.6
393.44	1.54
393.806	1.57
394.171	1.48
394.536	1.66
394.902	1.56
395.267	1.53
395.632	1.54
395.997	1.59
396.362	1.51
396.727	1.77
397.092	1.54
397.457	1.62
397.822	1.56
398.187	1.59
398.552	1.55
398.917	1.62
399.282	1.47
399.646	1.55
400.011	1.64
400.376	1.57
400.74	1.51
401.105	1.53
401.47	1.59
401.834	1.59
402.199	1.52
402.563	1.55
402.927	1.54
403.292	1.56
403.656	1.61
404.02	1.53
404.384	1.59
404.749	1.55
405.113	1.67
405.477	1.67
405.841	1.69
406.205	1.58
406.569	1.61
406.933	1.45
407.296	1.69
407.66	1.67
408.024	1.5
408.388	1.6
408.752	1.59
409.115	1.75
409.479	1.56
409.842	1.5
410.206	1.55
410.569	1.67
410.933	1.67
411.296	1.47
411.66	1.74
412.023	1.5
412.386	1.63
412.749	1.44
413.113	1.63
413.476	1.37
413.839	1.46
414.202	1.54
414.565	1.37
414.928	1.41
415.291	1.57
415.654	1.56
416.017	1.77
416.38	1.36
416.742	1.5
417.105	1.43
417.468	1.48
417.83	1.48
418.193	1.77
418.556	1.56
418.918	1.45
419.281	1.53
419.643	1.51
420.005	1.48
420.368	1.58
420.73	1.42
421.092	1.55
421.455	1.65
421.817	1.41
422.179	1.42
422.541	1.52
422.903	1.58
423.265	1.6
423.627	1.54
423.989	1.47
424.351	1.44
424.713	1.54
425.075	1.4
425.436	1.45
425.798	1.52
426.16	1.56
426.521	1.44
426.883	1.52
427.245	1.51
427.606	1.47
427.967	1.4
428.329	1.43
428.69	1.58
429.052	1.41
429.413	1.63
429.774	1.52
430.135	1.56
430.497	1.54
430.858	1.43
431.219	1.44
431.58	1.42
431.941	1.42
432.302	1.34
432.663	1.57
433.024	1.66
433.384	1.52
433.745	1.43
434.106	1.51
434.467	1.52
434.827	1.47
435.188	1.4
435.548	1.54
435.909	1.49
436.269	1.52
436.63	1.44
436.99	1.41
437.351	1.39
437.711	1.47
438.071	1.4
438.431	1.42
438.792	1.44
439.152	1.38
439.512	1.33
439.872	1.39
440.232	1.48
440.592	1.43
440.952	1.39
441.312	1.3
441.671	1.36
442.031	1.36
442.391	1.37
442.751	1.34
443.11	1.36
443.47	1.27
443.83	1.28
444.189	1.28
444.549	1.27
444.908	1.29
445.267	1.3
445.627	1.33
445.986	1.25
446.345	1.23
446.705	1.26
447.064	1.29
447.423	1.27
447.782	1.25
448.141	1.25
448.5	1.17
448.859	1.2
449.218	1.23
449.577	1.27
449.936	1.26
450.295	1.2
450.653	1.21
451.012	1.18
451.371	1.17
451.729	1.18
452.088	1.2
452.447	1.18
452.805	1.14
453.163	1.14
453.522	1.15
453.88	1.1
454.239	1.14
454.597	1.09
454.955	1.06
455.313	1.07
455.671	1.09
456.029	1.09
456.388	1.04
456.746	1.04
457.104	1.04
457.461	1.02
457.819	1.01
458.177	1
458.535	0.97
458.893	0.96
459.25	0.95
459.608	0.94
459.966	0.93
460.323	0.93
460.681	0.91
461.038	0.9
461.396	0.86
461.753	0.88
462.111	0.87
462.468	0.84
462.825	0.84
463.182	0.82
463.54	0.79
463.897	0.79
464.254	0.8
464.611	0.81
464.968	0.77
465.325	0.78
465.682	0.77
466.039	0.76
466.395	0.74
466.752	0.73
467.109	0.7
467.466	0.71
467.822	0.69
468.179	0.69
468.535	0.69
468.892	0.68
469.248	0.65
469.605	0.64
469.961	0.63
470.318	0.64
470.674	0.6
471.03	0.61
471.386	0.61
471.743	0.59
472.099	0.58
472.455	0.57
472.811	0.55
473.167	0.56
473.523	0.54
473.879	0.54
474.235	0.54
474.59	0.52
474.946	0.51
475.302	0.51
475.657	0.49
476.013	0.48
476.369	0.48
476.724	0.47
477.08	0.47
477.435	0.45
477.791	0.45
478.146	0.44
478.501	0.44
478.857	0.43
479.212	0.42
479.567	0.41
479.922	0.4
480.277	0.4
480.632	0.38
480.987	0.38
481.342	0.39
481.697	0.37
482.052	0.37
482.407	0.37
482.762	0.35
483.116	0.34
483.471	0.34
483.826	0.34
484.18	0.33
484.535	0.32
484.89	0.31
485.244	0.32
485.598	0.31
485.953	0.3
486.307	0.3
486.661	0.3
487.016	0.29
487.37	0.29
487.724	0.28
488.078	0.28
488.432	0.28
488.786	0.28
489.14	0.27
489.494	0.26
489.848	0.26
490.202	0.25
490.556	0.24
490.91	0.25
491.263	0.25
491.617	0.24
491.971	0.24
492.324	0.24
492.678	0.24
493.031	0.23
493.385	0.23
493.738	0.23
494.091	0.22
494.445	0.22
494.798	0.21
495.151	0.21
495.504	0.21
495.857	0.21
496.21	0.21
496.564	0.2
496.916	0.21
497.269	0.19
497.622	0.2
497.975	0.18
498.328	0.19
498.681	0.18
499.033	0.19
499.386	0.19
499.739	0.18
500.091	0.18
500.444	0.18
500.796	0.17
501.149	0.17
501.501	0.17
501.854	0.17
502.206	0.17
502.558	0.17
502.91	0.17
503.263	0.17
503.615	0.17
503.967	0.16
504.319	0.16
504.671	0.17
505.023	0.16
505.375	0.16
505.726	0.16
506.078	0.16
506.43	0.16
506.782	0.15
507.133	0.15
507.485	0.16
507.837	0.16
508.188	0.15
508.54	0.15
508.891	0.16
509.243	0.15
509.594	0.15
509.945	0.15
510.296	0.15
510.648	0.16
510.999	0.14
511.35	0.15
511.701	0.14
512.052	0.15
512.403	0.14
512.754	0.14
513.105	0.14
513.456	0.14
513.807	0.14
514.157	0.14
514.508	0.14
514.859	0.14
515.209	0.14
515.56	0.14
515.91	0.14
516.261	0.14
516.611	0.14
516.962	0.14
517.312	0.14
517.662	0.14
518.013	0.14
518.363	0.14
518.713	0.14
519.063	0.14
519.413	0.14
519.763	0.14
520.113	0.14
520.463	0.14
520.813	0.14
521.163	0.14
521.512	0.14
521.862	0.14
522.212	0.14
522.562	0.14
522.911	0.14
523.261	0.13
523.61	0.14
523.96	0.14
524.309	0.14
524.658	0.13
525.008	0.13
525.357	0.13
525.706	0.13
526.056	0.13
526.405	0.14
526.754	0.13
527.103	0.13
527.452	0.14
527.801	0.13
528.15	0.14
528.499	0.13
528.847	0.14
529.196	0.14
529.545	0.14
529.893	0.14
530.242	0.14
530.591	0.14
530.939	0.14
531.288	0.14
531.636	0.14
531.985	0.14
532.333	0.14
532.681	0.14
533.029	0.14
533.378	0.15
533.726	0.15
534.074	0.15
534.422	0.14
534.77	0.14
535.118	0.15
535.466	0.13
535.814	0.14
536.162	0.14
536.509	0.14
536.857	0.14
537.205	0.15
537.552	0.14
537.9	0.15
538.248	0.14
538.595	0.14
538.943	0.15
539.29	0.14
539.637	0.13
539.985	0.14
540.332	0.14
540.679	0.14
541.026	0.14
541.373	0.14
541.721	0.13
542.068	0.14
542.415	0.14
542.762	0.13
543.108	0.13
543.455	0.13
543.802	0.13
544.149	0.13
544.496	0.13
544.842	0.13
545.189	0.12
545.535	0.13
545.882	0.13
546.228	0.13
546.575	0.13
546.921	0.12
547.267	0.13
547.614	0.13
547.96	0.13
548.306	0.13
548.652	0.13
548.998	0.13
549.344	0.13
549.69	0.13
550.036	0.13
550.382	0.12
550.728	0.13
551.074	0.13
551.42	0.13
551.765	0.14
552.111	0.14
552.457	0.14
552.802	0.13
553.148	0.13
553.493	0.13
553.839	0.14
554.184	0.14
554.529	0.13
554.875	0.13
555.22	0.13
555.565	0.14
555.91	0.14
556.255	0.14
556.6	0.14
556.945	0.13
557.29	0.13
557.635	0.14
557.98	0.14
558.325	0.13
558.67	0.13
559.014	0.14
559.359	0.14
559.704	0.14
560.048	0.13
560.393	0.13
560.737	0.13
561.082	0.13
561.426	0.13
561.77	0.13
562.115	0.13
562.459	0.14
562.803	0.13
563.147	0.13
563.491	0.13
563.835	0.14
564.179	0.14
564.523	0.13
564.867	0.14
565.211	0.13
565.555	0.14
565.899	0.15
566.242	0.13
566.586	0.13
566.93	0.14
567.273	0.14
567.617	0.14
567.96	0.13
568.304	0.14
568.647	0.14
568.99	0.14
569.334	0.14
569.677	0.14
570.02	0.14
570.363	0.14
570.706	0.13
571.049	0.14
571.392	0.14
571.735	0.13
572.078	0.14
572.421	0.15
572.764	0.14
573.106	0.14
573.449	0.13
573.792	0.13
574.134	0.14
574.477	0.15
574.819	0.14
575.162	0.13
575.504	0.14
575.847	0.13
576.189	0.13
576.531	0.14
576.873	0.13
577.215	0.14
577.558	0.14
577.9	0.14
578.242	0.13
578.584	0.14
578.926	0.13
579.267	0.14
579.609	0.13
579.951	0.14
580.293	0.13
580.634	0.14
580.976	0.14
581.318	0.13
581.659	0.13
582.001	0.13
582.342	0.13
582.683	0.13
583.025	0.13
583.366	0.13
583.707	0.13
584.049	0.13
584.39	0.13
584.731	0.13
585.072	0.12
585.413	0.13
585.754	0.13
586.095	0.13
586.435	0.13
586.776	0.13
587.117	0.13
587.458	0.13
587.798	0.13
588.139	0.13
588.48	0.13
588.82	0.13
589.161	0.13
589.501	0.13
589.841	0.13
590.182	0.13
590.522	0.12
590.862	0.14
591.202	0.13
591.542	0.12
591.882	0.13
592.222	0.13
592.562	0.13
592.902	0.13
593.242	0.13
593.582	0.14
593.922	0.13
594.261	0.13
594.601	0.13
594.941	0.12
595.28	0.13
595.62	0.13
595.959	0.13
596.299	0.12
596.638	0.12
596.977	0.13
597.317	0.14
597.656	0.13
597.995	0.13
598.334	0.13
598.673	0.13
599.012	0.13
599.351	0.14
599.69	0.13
600.029	0.14
600.368	0.13
600.707	0.13
601.046	0.13
601.384	0.14
601.723	0.14
602.061	0.13
602.4	0.13
602.738	0.13
603.077	0.13
603.415	0.12
603.754	0.13
604.092	0.14
604.43	0.13
604.768	0.14
605.107	0.13
605.445	0.13
605.783	0.12
606.121	0.12
606.459	0.13
606.796	0.13
607.134	0.13
607.472	0.13
607.81	0.13
608.148	0.13
608.485	0.13
608.823	0.13
609.16	0.12
609.498	0.13
609.835	0.13
610.173	0.12
610.51	0.12
610.847	0.12
611.185	0.13
611.522	0.13
611.859	0.13
612.196	0.13
612.533	0.13
612.87	0.14
613.207	0.13
613.544	0.13
613.881	0.14
614.217	0.14
614.554	0.14
614.891	0.14
615.228	0.13
615.564	0.14
615.901	0.14
616.237	0.14
616.574	0.13
616.91	0.14
617.246	0.13
617.583	0.14
617.919	0.14
618.255	0.14
618.591	0.13
618.927	0.14
619.263	0.14
619.599	0.14
619.935	0.14
620.271	0.13
620.607	0.14
620.943	0.14
621.279	0.13
621.614	0.13
621.95	0.14
622.286	0.13
622.621	0.13
622.957	0.14
623.292	0.13
623.627	0.13
623.963	0.13
624.298	0.14
624.633	0.12
624.968	0.13
625.304	0.12
625.639	0.13
625.974	0.13
626.309	0.12
626.644	0.12
626.979	0.14
627.313	0.13
627.648	0.13
627.983	0.12
628.318	0.12
628.652	0.12
628.987	0.13
629.321	0.12
629.656	0.11
629.99	0.12
630.325	0.12
630.659	0.12
630.993	0.11
631.327	0.11
631.662	0.11
631.996	0.11
632.33	0.11
632.664	0.12
632.998	0.11
633.332	0.12
633.666	0.11
633.999	0.11
634.333	0.12
634.667	0.11
635.001	0.12
635.334	0.12
635.668	0.11
636.001	0.11
636.335	0.11
636.668	0.11
637.001	0.11
637.335	0.11
637.668	0.12
638.001	0.11
638.334	0.12
638.668	0.12
639.001	0.11
639.334	0.11
639.667	0.11
639.999	0.11
640.332	0.11
640.665	0.11
640.998	0.11
641.331	0.12
641.663	0.11
641.996	0.11
642.328	0.11
642.661	0.11
642.993	0.11
643.326	0.11
643.658	0.1
643.99	0.1
644.323	0.1
644.655	0.11
644.987	0.11
645.319	0.11
645.651	0.11
645.983	0.11
646.315	0.1
646.647	0.11
646.979	0.12
647.31	0.11
647.642	0.1
647.974	0.11
648.305	0.12
648.637	0.11
648.968	0.12
649.3	0.11
649.631	0.12
649.963	0.11
650.294	0.11
650.625	0.11
650.957	0.11
651.288	0.12
651.619	0.11
651.95	0.11
652.281	0.11
652.612	0.12
652.943	0.12
653.274	0.12
653.604	0.11
653.935	0.11
654.266	0.11
654.596	0.11
654.927	0.1
655.258	0.11
655.588	0.12
655.918	0.12
656.249	0.1
656.579	0.1
656.909	0.11
657.24	0.1
657.57	0.11
657.9	0.11
658.23	0.11
658.56	0.11
658.89	0.11
659.22	0.11
659.55	0.11
659.88	0.11
660.209	0.11
660.539	0.11
660.869	0.11
661.198	0.12
661.528	0.1
661.857	0.1
662.187	0.11
662.516	0.11
662.846	0.11
663.175	0.1
663.504	0.11
663.833	0.1
664.163	0.11
664.492	0.11
664.821	0.1
665.15	0.1
665.479	0.11
665.807	0.1
666.136	0.11
666.465	0.1
666.794	0.11
667.122	0.11
667.451	0.1
667.78	0.11
668.108	0.11
668.437	0.11
668.765	0.11
669.093	0.11
669.422	0.11
669.75	0.1
670.078	0.1
670.406	0.11
670.734	0.11
671.062	0.1
671.39	0.1
671.718	0.1
672.046	0.1
672.374	0.09
672.702	0.1
673.029	0.1
673.357	0.1
673.685	0.1
674.012	0.1
674.34	0.1
674.667	0.1
674.995	0.1
675.322	0.1
675.649	0.09
675.977	0.1
676.304	0.1
676.631	0.1
676.958	0.1
677.285	0.09
677.612	0.1
677.939	0.1
678.266	0.1
678.593	0.09
678.92	0.11
679.246	0.1
679.573	0.1
679.9	0.09
680.226	0.1
680.553	0.1
680.879	0.1
681.206	0.1
681.532	0.1
681.858	0.1
682.184	0.09
682.511	0.1
682.837	0.1
683.163	0.1
683.489	0.1
683.815	0.1
684.141	0.1
684.467	0.1
684.793	0.09
685.118	0.09
685.444	0.09
685.77	0.1
686.095	0.09
686.421	0.09
686.746	0.1
687.072	0.1
687.397	0.09
687.723	0.1
688.048	0.1
688.373	0.1
688.698	0.09
689.023	0.09
689.349	0.1
689.674	0.1
689.999	0.1
690.323	0.09
690.648	0.09
690.973	0.09
691.298	0.09
691.623	0.09
691.947	0.1
692.272	0.1
692.596	0.1
692.921	0.1
693.245	0.1
693.57	0.1
693.894	0.1
694.218	0.1
694.543	0.09
694.867	0.1
695.191	0.08
695.515	0.1
695.839	0.09
696.163	0.09
696.487	0.09
696.811	0.09
697.135	0.1
697.458	0.09
697.782	0.09
698.106	0.09
698.429	0.09
698.753	0.09
699.076	0.09
699.4	0.09
699.723	0.09
700.046	0.08
700.37	0.09
700.693	0.09
701.016	0.09
701.339	0.09
701.662	0.09
701.985	0.09
702.308	0.09
702.631	0.1
702.954	0.09
703.277	0.09
703.599	0.09
703.922	0.09
704.245	0.09
704.567	0.09
704.89	0.09
705.212	0.08
705.535	0.07
705.857	0.08
706.179	0.08
706.502	0.09
706.824	0.07
707.146	0.08
707.468	0.09
707.79	0.08
708.112	0.09
708.434	0.09
708.756	0.08
709.078	0.08
709.399	0.07
709.721	0.08
710.043	0.08
710.364	0.08
710.686	0.08
711.007	0.08
711.329	0.08
711.65	0.08
711.972	0.09
712.293	0.09
712.614	0.09
712.935	0.08
713.256	0.08
713.577	0.09
713.898	0.08
714.219	0.08
714.54	0.08
714.861	0.07
715.182	0.08
715.503	0.08
715.823	0.08
716.144	0.06
716.464	0.07
716.785	0.07
717.105	0.07
717.426	0.07
717.746	0.07
718.066	0.06
718.387	0.07
718.707	0.07
719.027	0.08
719.347	0.06
719.667	0.08
719.987	0.07
720.307	0.07
720.627	0.07
720.947	0.07
721.266	0.07
721.586	0.06
721.906	0.07
722.225	0.06
722.545	0.07
722.864	0.07
723.184	0.07
723.503	0.07
723.823	0.07
724.142	0.07
724.461	0.07
724.78	0.07
