Data from 12-12-AQDScycling_Absorbance__304__00304.txt Node

Date: Tue Dec 12 12:12:44 EST 2023
User: kyuminlee
Spectrometer: FLMS00943
Trigger mode: 0
Integration Time (sec): 1.000000E-1
Scans to average: 1
Electric dark correction enabled: true
Nonlinearity correction enabled: false
Boxcar width: 0
XAxis mode: Wavelengths
Number of Pixels in Spectrum: 2048
>>>>>Begin Spectral Data<<<<<
179.651	-0
180.037	-0
180.424	-0
180.81	-0.19
181.197	0.14
181.583	-0.03
181.97	-0.16
182.356	-0
182.743	-0.19
183.129	0.23
183.515	-0
183.901	-2.45
184.288	0.02
184.674	-0
185.06	-0.88
185.446	-0.42
185.832	-1.34
186.218	0.1
186.604	-0.17
186.99	-0
187.376	0.22
187.762	0.27
188.148	0.48
188.534	-0.11
188.92	0.09
189.305	0.06
189.691	0.27
190.077	0.16
190.463	0.09
190.848	0.08
191.234	-0.07
191.619	0.08
192.005	0.02
192.391	0.15
192.776	0.12
193.161	0.03
193.547	0.27
193.932	-0.05
194.318	0.07
194.703	0.06
195.088	0.15
195.473	0.17
195.859	0.23
196.244	0.11
196.629	0.21
197.014	0.17
197.399	0.15
197.784	0.27
198.169	0.04
198.554	0.22
198.939	0.1
199.324	0.16
199.709	0.07
200.094	0.12
200.478	0.04
200.863	0.3
201.248	0.12
201.633	0.18
202.017	0.04
202.402	0.11
202.787	0.18
203.171	0.06
203.556	0.22
203.94	0.14
204.325	0.24
204.709	0.18
205.093	0.07
205.478	0.01
205.862	0.13
206.246	0.16
206.631	0.11
207.015	0.02
207.399	0.26
207.783	0.06
208.167	0.11
208.551	0.19
208.935	0.19
209.319	0.16
209.703	0.13
210.087	0.18
210.471	0.03
210.855	0.06
211.239	0.26
211.623	0.25
212.007	0.13
212.39	0.24
212.774	0.18
213.158	0.18
213.541	0.27
213.925	0.3
214.309	0.28
214.692	0.34
215.076	0.26
215.459	0.31
215.842	0.13
216.226	0.25
216.609	0.23
216.993	0.23
217.376	0.29
217.759	0.16
218.142	0.38
218.525	0.53
218.909	0.36
219.292	0.37
219.675	0.49
220.058	0.41
220.441	0.47
220.824	0.39
221.207	0.47
221.59	0.48
221.973	0.61
222.355	0.64
222.738	0.57
223.121	0.67
223.504	0.54
223.886	0.64
224.269	0.6
224.652	0.67
225.034	0.77
225.417	0.73
225.799	0.72
226.182	0.97
226.564	0.78
226.947	0.78
227.329	0.86
227.711	1.07
228.094	1.09
228.476	0.86
228.858	0.88
229.24	0.78
229.623	0.94
230.005	0.78
230.387	0.83
230.769	0.86
231.151	0.96
231.533	0.97
231.915	0.9
232.297	1.01
232.679	1.03
233.061	1
233.442	0.94
233.824	1.05
234.206	1.11
234.588	1.05
234.969	1.01
235.351	0.93
235.733	1.02
236.114	1.16
236.496	1.04
236.877	1.16
237.259	0.99
237.64	1.05
238.022	1.01
238.403	1.03
238.784	0.96
239.165	0.98
239.547	1.08
239.928	1.08
240.309	1.21
240.69	1.05
241.071	1.03
241.452	1.11
241.834	0.99
242.215	1.02
242.595	1.08
242.976	1.1
243.357	1.1
243.738	1.09
244.119	1.29
244.5	1.08
244.881	1.19
245.261	1.28
245.642	1.06
246.023	1.17
246.403	1.07
246.784	1.19
247.164	1.22
247.545	1.3
247.925	1.4
248.306	1.23
248.686	1.35
249.067	1.33
249.447	1.47
249.827	1.54
250.207	1.34
250.588	1.37
250.968	1.39
251.348	1.29
251.728	1.47
252.108	1.33
252.488	1.34
252.868	1.28
253.248	1.32
253.628	1.41
254.008	1.45
254.388	1.26
254.768	1.29
255.147	1.35
255.527	1.47
255.907	1.3
256.287	1.36
256.666	1.34
257.046	1.42
257.425	1.47
257.805	1.32
258.184	1.32
258.564	1.35
258.943	1.33
259.323	1.52
259.702	1.47
260.081	1.4
260.461	1.36
260.84	1.49
261.219	1.71
261.598	1.5
261.977	1.34
262.356	1.54
262.736	1.45
263.115	1.54
263.494	1.41
263.873	1.49
264.251	1.49
264.63	1.5
265.009	1.43
265.388	1.49
265.767	1.36
266.145	1.44
266.524	1.36
266.903	1.37
267.281	1.38
267.66	1.64
268.039	1.53
268.417	1.38
268.796	1.34
269.174	1.52
269.552	1.27
269.931	1.37
270.309	1.41
270.687	1.67
271.066	1.51
271.444	1.32
271.822	1.44
272.2	1.44
272.578	1.39
272.956	1.4
273.334	1.43
273.712	1.52
274.09	1.35
274.468	1.37
274.846	1.35
275.224	1.33
275.602	1.34
275.98	1.49
276.357	1.42
276.735	1.43
277.113	1.43
277.49	1.27
277.868	1.23
278.246	1.54
278.623	1.27
279.001	1.23
279.378	1.41
279.756	1.6
280.133	1.5
280.51	1.37
280.888	1.45
281.265	1.42
281.642	1.34
282.019	1.42
282.396	1.47
282.773	1.45
283.151	1.41
283.528	1.44
283.905	1.34
284.282	1.54
284.659	1.49
285.035	1.27
285.412	1.37
285.789	1.56
286.166	1.35
286.543	1.44
286.919	1.47
287.296	1.4
287.673	1.5
288.049	1.51
288.426	1.48
288.802	1.56
289.179	1.47
289.555	1.77
289.932	1.4
290.308	1.39
290.684	1.43
291.061	1.37
291.437	1.56
291.813	1.43
292.189	1.29
292.565	1.41
292.942	1.27
293.318	1.4
293.694	1.4
294.07	1.39
294.446	1.41
294.822	1.42
295.197	1.47
295.573	1.44
295.949	1.49
296.325	1.41
296.701	1.46
297.076	1.56
297.452	1.49
297.828	1.46
298.203	1.42
298.579	1.39
298.954	1.4
299.33	1.41
299.705	1.36
300.081	1.39
300.456	1.4
300.831	1.34
301.206	1.35
301.582	1.4
301.957	1.39
302.332	1.43
302.707	1.3
303.082	1.26
303.457	1.37
303.832	1.32
304.207	1.3
304.582	1.34
304.957	1.29
305.332	1.37
305.707	1.38
306.082	1.4
306.456	1.34
306.831	1.31
307.206	1.26
307.58	1.31
307.955	1.27
308.33	1.21
308.704	1.31
309.079	1.26
309.453	1.31
309.828	1.23
310.202	1.21
310.576	1.16
310.951	1.26
311.325	1.2
311.699	1.2
312.073	1.16
312.447	1.26
312.821	1.2
313.196	1.25
313.57	1.14
313.944	1.22
314.317	1.12
314.691	1.22
315.065	1.24
315.439	1.23
315.813	1.19
316.187	1.19
316.56	1.23
316.934	1.21
317.308	1.18
317.681	1.18
318.055	1.18
318.428	1.19
318.802	1.26
319.175	1.16
319.549	1.15
319.922	1.14
320.295	1.13
320.669	1.23
321.042	1.23
321.415	1.31
321.788	1.19
322.162	1.14
322.535	1.25
322.908	1.22
323.281	1.25
323.654	1.22
324.027	1.2
324.4	1.32
324.773	1.31
325.145	1.27
325.518	1.16
325.891	1.17
326.264	1.29
326.636	1.25
327.009	1.14
327.382	1.24
327.754	1.27
328.127	1.15
328.499	1.26
328.872	1.27
329.244	1.27
329.616	1.21
329.989	1.22
330.361	1.26
330.733	1.21
331.106	1.19
331.478	1.26
331.85	1.18
332.222	1.22
332.594	1.32
332.966	1.29
333.338	1.35
333.71	1.31
334.082	1.35
334.454	1.22
334.826	1.23
335.197	1.33
335.569	1.29
335.941	1.3
336.312	1.25
336.684	1.31
337.056	1.31
337.427	1.31
337.799	1.3
338.17	1.27
338.542	1.31
338.913	1.37
339.284	1.3
339.656	1.26
340.027	1.33
340.398	1.3
340.769	1.27
341.141	1.37
341.512	1.3
341.883	1.34
342.254	1.24
342.625	1.34
342.996	1.29
343.367	1.23
343.738	1.29
344.108	1.2
344.479	1.34
344.85	1.26
345.221	1.25
345.591	1.25
345.962	1.31
346.333	1.27
346.703	1.21
347.074	1.21
347.444	1.21
347.815	1.26
348.185	1.24
348.556	1.28
348.926	1.19
349.296	1.38
349.666	1.23
350.037	1.19
350.407	1.19
350.777	1.34
351.147	1.31
351.517	1.33
351.887	1.33
352.257	1.36
352.627	1.25
352.997	1.22
353.367	1.28
353.737	1.29
354.106	1.45
354.476	1.28
354.846	1.37
355.216	1.35
355.585	1.42
355.955	1.36
356.324	1.42
356.694	1.37
357.063	1.35
357.433	1.35
357.802	1.36
358.171	1.4
358.541	1.38
358.91	1.36
359.279	1.47
359.648	1.42
360.017	1.52
360.387	1.55
360.756	1.34
361.125	1.38
361.494	1.47
361.863	1.42
362.231	1.37
362.6	1.48
362.969	1.44
363.338	1.36
363.707	1.45
364.075	1.48
364.444	1.4
364.813	1.34
365.181	1.38
365.55	1.52
365.918	1.55
366.287	1.48
366.655	1.6
367.024	1.49
367.392	1.47
367.76	1.37
368.128	1.42
368.497	1.42
368.865	1.44
369.233	1.45
369.601	1.54
369.969	1.46
370.337	1.54
370.705	1.55
371.073	1.44
371.441	1.43
371.809	1.42
372.177	1.46
372.544	1.5
372.912	1.6
373.28	1.55
373.647	1.57
374.015	1.62
374.383	1.96
374.75	1.65
375.118	1.48
375.485	1.51
375.853	1.61
376.22	1.51
376.587	1.56
376.955	1.51
377.322	1.61
377.689	1.54
378.056	1.52
378.423	1.46
378.79	1.67
379.157	1.52
379.524	1.54
379.891	1.46
380.258	1.54
380.625	1.63
380.992	1.51
381.359	1.5
381.726	1.68
382.092	1.56
382.459	1.45
382.826	1.51
383.192	1.56
383.559	1.64
383.925	1.59
384.292	1.43
384.658	1.61
385.025	1.56
385.391	1.72
385.757	1.57
386.123	1.59
386.49	1.47
386.856	1.51
387.222	1.67
387.588	1.49
387.954	1.62
388.32	1.64
388.686	1.65
389.052	1.5
389.418	1.52
389.784	1.43
390.15	1.58
390.515	1.4
390.881	1.69
391.247	1.47
391.613	1.63
391.978	1.51
392.344	1.71
392.709	1.6
393.075	1.58
393.44	1.63
393.806	1.47
394.171	1.54
394.536	1.51
394.902	1.62
395.267	1.53
395.632	1.45
395.997	1.48
396.362	1.5
396.727	1.54
397.092	1.57
397.457	1.48
397.822	1.47
398.187	1.75
398.552	1.48
398.917	1.77
399.282	1.43
399.646	1.61
400.011	1.62
400.376	1.48
400.74	1.44
401.105	1.6
401.47	1.62
401.834	1.46
402.199	1.47
402.563	1.53
402.927	1.49
403.292	1.57
403.656	1.53
404.02	1.54
404.384	1.74
404.749	1.49
405.113	1.59
405.477	1.75
405.841	1.58
406.205	1.66
406.569	1.52
406.933	1.62
407.296	1.75
407.66	1.42
408.024	1.57
408.388	1.61
408.752	1.49
409.115	1.5
409.479	1.5
409.842	1.45
410.206	1.48
410.569	1.47
410.933	1.41
411.296	1.34
411.66	1.44
412.023	1.4
412.386	1.45
412.749	1.48
413.113	1.43
413.476	1.39
413.839	1.43
414.202	1.51
414.565	1.36
414.928	1.46
415.291	1.39
415.654	1.49
416.017	1.53
416.38	1.33
416.742	1.41
417.105	1.33
417.468	1.34
417.83	1.47
418.193	1.49
418.556	1.29
418.918	1.36
419.281	1.4
419.643	1.4
420.005	1.36
420.368	1.44
420.73	1.4
421.092	1.47
421.455	1.44
421.817	1.33
422.179	1.39
422.541	1.34
422.903	1.53
423.265	1.54
423.627	1.4
423.989	1.43
424.351	1.39
424.713	1.35
425.075	1.36
425.436	1.42
425.798	1.38
426.16	1.45
426.521	1.33
426.883	1.43
427.245	1.35
427.606	1.34
427.967	1.33
428.329	1.35
428.69	1.4
429.052	1.35
429.413	1.43
429.774	1.4
430.135	1.39
430.497	1.41
430.858	1.34
431.219	1.35
431.58	1.3
431.941	1.34
432.302	1.41
432.663	1.32
433.024	1.41
433.384	1.36
433.745	1.31
434.106	1.36
434.467	1.37
434.827	1.34
435.188	1.28
435.548	1.46
435.909	1.31
436.269	1.33
436.63	1.26
436.99	1.3
437.351	1.23
437.711	1.3
438.071	1.27
438.431	1.29
438.792	1.29
439.152	1.26
439.512	1.23
439.872	1.23
440.232	1.28
440.592	1.29
440.952	1.27
441.312	1.18
441.671	1.21
442.031	1.19
442.391	1.2
442.751	1.25
443.11	1.21
443.47	1.24
443.83	1.21
444.189	1.22
444.549	1.18
444.908	1.19
445.267	1.17
445.627	1.2
445.986	1.15
446.345	1.11
446.705	1.13
447.064	1.18
447.423	1.16
447.782	1.13
448.141	1.12
448.5	1.09
448.859	1.09
449.218	1.1
449.577	1.12
449.936	1.09
450.295	1.08
450.653	1.07
451.012	1.08
451.371	1.08
451.729	1.04
452.088	1.07
452.447	1.03
452.805	1.03
453.163	1.07
453.522	1.03
453.88	1
454.239	1.02
454.597	1
454.955	0.98
455.313	0.98
455.671	0.97
456.029	0.97
456.388	0.94
456.746	0.94
457.104	0.94
457.461	0.91
457.819	0.92
458.177	0.9
458.535	0.88
458.893	0.87
459.25	0.87
459.608	0.86
459.966	0.86
460.323	0.83
460.681	0.82
461.038	0.81
461.396	0.79
461.753	0.79
462.111	0.77
462.468	0.77
462.825	0.75
463.182	0.75
463.54	0.72
463.897	0.76
464.254	0.74
464.611	0.72
464.968	0.72
465.325	0.71
465.682	0.7
466.039	0.7
466.395	0.67
466.752	0.67
467.109	0.65
467.466	0.66
467.822	0.64
468.179	0.63
468.535	0.63
468.892	0.61
469.248	0.6
469.605	0.6
469.961	0.59
470.318	0.59
470.674	0.58
471.03	0.56
471.386	0.56
471.743	0.55
472.099	0.54
472.455	0.53
472.811	0.53
473.167	0.52
473.523	0.5
473.879	0.5
474.235	0.49
474.59	0.48
474.946	0.48
475.302	0.47
475.657	0.46
476.013	0.46
476.369	0.44
476.724	0.44
477.08	0.44
477.435	0.43
477.791	0.42
478.146	0.42
478.501	0.41
478.857	0.41
479.212	0.41
479.567	0.39
479.922	0.38
480.277	0.39
480.632	0.38
480.987	0.36
481.342	0.36
481.697	0.36
482.052	0.34
482.407	0.35
482.762	0.34
483.116	0.33
483.471	0.33
483.826	0.32
484.18	0.32
484.535	0.31
484.89	0.31
485.244	0.31
485.598	0.3
485.953	0.3
486.307	0.29
486.661	0.3
487.016	0.28
487.37	0.29
487.724	0.29
488.078	0.28
488.432	0.27
488.786	0.27
489.14	0.27
489.494	0.26
489.848	0.26
490.202	0.26
490.556	0.25
490.91	0.25
491.263	0.25
491.617	0.24
491.971	0.24
492.324	0.24
492.678	0.24
493.031	0.24
493.385	0.23
493.738	0.23
494.091	0.23
494.445	0.23
494.798	0.22
495.151	0.22
495.504	0.22
495.857	0.22
496.21	0.22
496.564	0.2
496.916	0.21
497.269	0.2
497.622	0.21
497.975	0.2
498.328	0.21
498.681	0.2
499.033	0.2
499.386	0.2
499.739	0.19
500.091	0.19
500.444	0.19
500.796	0.19
501.149	0.18
501.501	0.19
501.854	0.19
502.206	0.19
502.558	0.18
502.91	0.18
503.263	0.18
503.615	0.18
503.967	0.18
504.319	0.18
504.671	0.17
505.023	0.17
505.375	0.17
505.726	0.18
506.078	0.16
506.43	0.16
506.782	0.16
507.133	0.17
507.485	0.17
507.837	0.18
508.188	0.18
508.54	0.17
508.891	0.18
509.243	0.16
509.594	0.16
509.945	0.16
510.296	0.16
510.648	0.17
510.999	0.15
511.35	0.17
511.701	0.16
512.052	0.17
512.403	0.16
512.754	0.16
513.105	0.16
513.456	0.16
513.807	0.16
514.157	0.16
514.508	0.16
514.859	0.15
515.209	0.15
515.56	0.16
515.91	0.16
516.261	0.15
516.611	0.15
516.962	0.15
517.312	0.15
517.662	0.16
518.013	0.15
518.363	0.16
518.713	0.15
519.063	0.16
519.413	0.15
519.763	0.15
520.113	0.15
520.463	0.15
520.813	0.16
521.163	0.16
521.512	0.16
521.862	0.15
522.212	0.15
522.562	0.16
522.911	0.16
523.261	0.15
523.61	0.16
523.96	0.15
524.309	0.15
524.658	0.15
525.008	0.15
525.357	0.16
525.706	0.15
526.056	0.15
526.405	0.15
526.754	0.15
527.103	0.15
527.452	0.15
527.801	0.15
528.15	0.16
528.499	0.15
528.847	0.15
529.196	0.16
529.545	0.16
529.893	0.15
530.242	0.16
530.591	0.16
530.939	0.16
531.288	0.16
531.636	0.16
531.985	0.16
532.333	0.17
532.681	0.16
533.029	0.16
533.378	0.16
533.726	0.16
534.074	0.16
534.422	0.16
534.77	0.16
535.118	0.16
535.466	0.15
535.814	0.15
536.162	0.16
536.509	0.16
536.857	0.15
537.205	0.17
537.552	0.16
537.9	0.16
538.248	0.16
538.595	0.17
538.943	0.17
539.29	0.16
539.637	0.16
539.985	0.16
540.332	0.16
540.679	0.16
541.026	0.15
541.373	0.16
541.721	0.15
542.068	0.16
542.415	0.16
542.762	0.15
543.108	0.15
543.455	0.14
543.802	0.15
544.149	0.15
544.496	0.15
544.842	0.14
545.189	0.14
545.535	0.15
545.882	0.15
546.228	0.15
546.575	0.14
546.921	0.14
547.267	0.15
547.614	0.15
547.96	0.14
548.306	0.14
548.652	0.15
548.998	0.15
549.344	0.15
549.69	0.15
550.036	0.15
550.382	0.15
550.728	0.15
551.074	0.16
551.42	0.15
551.765	0.16
552.111	0.16
552.457	0.16
552.802	0.16
553.148	0.15
553.493	0.15
553.839	0.16
554.184	0.16
554.529	0.15
554.875	0.15
555.22	0.16
555.565	0.16
555.91	0.15
556.255	0.16
556.6	0.16
556.945	0.15
557.29	0.15
557.635	0.16
557.98	0.16
558.325	0.16
558.67	0.16
559.014	0.15
559.359	0.16
559.704	0.16
560.048	0.15
560.393	0.15
560.737	0.15
561.082	0.15
561.426	0.15
561.77	0.16
562.115	0.15
562.459	0.15
562.803	0.15
563.147	0.14
563.491	0.15
563.835	0.15
564.179	0.15
564.523	0.15
564.867	0.15
565.211	0.15
565.555	0.15
565.899	0.16
566.242	0.15
566.586	0.14
566.93	0.16
567.273	0.16
567.617	0.16
567.96	0.16
568.304	0.16
568.647	0.16
568.99	0.16
569.334	0.17
569.677	0.16
570.02	0.17
570.363	0.16
570.706	0.15
571.049	0.15
571.392	0.16
571.735	0.15
572.078	0.15
572.421	0.16
572.764	0.15
573.106	0.16
573.449	0.15
573.792	0.16
574.134	0.14
574.477	0.16
574.819	0.15
575.162	0.15
575.504	0.16
575.847	0.15
576.189	0.15
576.531	0.15
576.873	0.16
577.215	0.15
577.558	0.16
577.9	0.15
578.242	0.15
578.584	0.16
578.926	0.16
579.267	0.15
579.609	0.15
579.951	0.16
580.293	0.15
580.634	0.16
580.976	0.16
581.318	0.15
581.659	0.15
582.001	0.16
582.342	0.16
582.683	0.16
583.025	0.15
583.366	0.15
583.707	0.15
584.049	0.15
584.39	0.16
584.731	0.14
585.072	0.15
585.413	0.16
585.754	0.15
586.095	0.15
586.435	0.15
586.776	0.16
587.117	0.15
587.458	0.15
587.798	0.16
588.139	0.15
588.48	0.14
588.82	0.15
589.161	0.15
589.501	0.15
589.841	0.15
590.182	0.15
590.522	0.15
590.862	0.16
591.202	0.15
591.542	0.15
591.882	0.15
592.222	0.14
592.562	0.15
592.902	0.15
593.242	0.15
593.582	0.16
593.922	0.15
594.261	0.15
594.601	0.15
594.941	0.14
595.28	0.15
595.62	0.15
595.959	0.14
596.299	0.15
596.638	0.15
596.977	0.15
597.317	0.16
597.656	0.15
597.995	0.15
598.334	0.16
598.673	0.15
599.012	0.14
599.351	0.15
599.69	0.14
600.029	0.15
600.368	0.15
600.707	0.14
601.046	0.15
601.384	0.15
601.723	0.15
602.061	0.14
602.4	0.15
602.738	0.15
603.077	0.15
603.415	0.14
603.754	0.15
604.092	0.15
604.43	0.15
604.768	0.15
605.107	0.16
605.445	0.15
605.783	0.15
606.121	0.15
606.459	0.15
606.796	0.15
607.134	0.14
607.472	0.15
607.81	0.14
608.148	0.14
608.485	0.15
608.823	0.15
609.16	0.14
609.498	0.15
609.835	0.14
610.173	0.15
610.51	0.15
610.847	0.15
611.185	0.15
611.522	0.15
611.859	0.15
612.196	0.15
612.533	0.16
612.87	0.16
613.207	0.16
613.544	0.15
613.881	0.16
614.217	0.16
614.554	0.15
614.891	0.15
615.228	0.16
615.564	0.15
615.901	0.15
616.237	0.15
616.574	0.15
616.91	0.15
617.246	0.15
617.583	0.16
617.919	0.16
618.255	0.16
618.591	0.16
618.927	0.16
619.263	0.16
619.599	0.16
619.935	0.16
620.271	0.15
620.607	0.16
620.943	0.15
621.279	0.16
621.614	0.15
621.95	0.15
622.286	0.14
622.621	0.14
622.957	0.15
623.292	0.14
623.627	0.14
623.963	0.14
624.298	0.14
624.633	0.14
624.968	0.14
625.304	0.14
625.639	0.14
625.974	0.13
626.309	0.14
626.644	0.14
626.979	0.15
627.313	0.13
627.648	0.14
627.983	0.14
628.318	0.13
628.652	0.13
628.987	0.13
629.321	0.14
629.656	0.13
629.99	0.13
630.325	0.13
630.659	0.14
630.993	0.13
631.327	0.14
631.662	0.13
631.996	0.13
632.33	0.14
632.664	0.14
632.998	0.13
633.332	0.13
633.666	0.14
633.999	0.13
634.333	0.13
634.667	0.13
635.001	0.12
635.334	0.14
635.668	0.12
636.001	0.14
636.335	0.13
636.668	0.13
637.001	0.12
637.335	0.13
637.668	0.13
638.001	0.12
638.334	0.13
638.668	0.12
639.001	0.13
639.334	0.12
639.667	0.11
639.999	0.12
640.332	0.13
640.665	0.12
640.998	0.12
641.331	0.12
641.663	0.11
641.996	0.12
642.328	0.12
642.661	0.12
642.993	0.12
643.326	0.12
643.658	0.11
643.99	0.11
644.323	0.11
644.655	0.12
644.987	0.11
645.319	0.11
645.651	0.12
645.983	0.12
646.315	0.11
646.647	0.12
646.979	0.13
647.31	0.12
647.642	0.12
647.974	0.12
648.305	0.12
648.637	0.12
648.968	0.12
649.3	0.13
649.631	0.13
649.963	0.12
650.294	0.13
650.625	0.12
650.957	0.13
651.288	0.13
651.619	0.13
651.95	0.13
652.281	0.13
652.612	0.12
652.943	0.12
653.274	0.13
653.604	0.13
653.935	0.12
654.266	0.13
654.596	0.12
654.927	0.12
655.258	0.13
655.588	0.13
655.918	0.13
656.249	0.11
656.579	0.12
656.909	0.12
657.24	0.12
657.57	0.13
657.9	0.12
658.23	0.12
658.56	0.13
658.89	0.13
659.22	0.12
659.55	0.12
659.88	0.13
660.209	0.13
660.539	0.13
660.869	0.13
661.198	0.13
661.528	0.13
661.857	0.13
662.187	0.13
662.516	0.13
662.846	0.13
663.175	0.13
663.504	0.12
663.833	0.12
664.163	0.12
664.492	0.12
664.821	0.12
665.15	0.12
665.479	0.12
665.807	0.11
666.136	0.12
666.465	0.11
666.794	0.12
667.122	0.12
667.451	0.11
667.78	0.11
668.108	0.12
668.437	0.11
668.765	0.11
669.093	0.12
669.422	0.11
669.75	0.11
670.078	0.12
670.406	0.12
670.734	0.11
671.062	0.12
671.39	0.11
671.718	0.12
672.046	0.12
672.374	0.11
672.702	0.12
673.029	0.11
673.357	0.12
673.685	0.12
674.012	0.12
674.34	0.11
674.667	0.12
674.995	0.12
675.322	0.11
675.649	0.11
675.977	0.11
676.304	0.11
676.631	0.12
676.958	0.11
677.285	0.1
677.612	0.11
677.939	0.11
678.266	0.12
678.593	0.11
678.92	0.12
679.246	0.11
679.573	0.11
679.9	0.11
680.226	0.11
680.553	0.1
680.879	0.11
681.206	0.1
681.532	0.1
681.858	0.1
682.184	0.11
682.511	0.1
682.837	0.1
683.163	0.11
683.489	0.1
683.815	0.1
684.141	0.1
684.467	0.11
684.793	0.09
685.118	0.1
685.444	0.11
685.77	0.1
686.095	0.1
686.421	0.1
686.746	0.11
687.072	0.1
687.397	0.1
687.723	0.11
688.048	0.11
688.373	0.1
688.698	0.1
689.023	0.1
689.349	0.1
689.674	0.11
689.999	0.1
690.323	0.1
690.648	0.1
690.973	0.09
691.298	0.09
691.623	0.1
691.947	0.1
692.272	0.09
692.596	0.09
692.921	0.1
693.245	0.1
693.57	0.09
693.894	0.1
694.218	0.1
694.543	0.09
694.867	0.09
695.191	0.09
695.515	0.09
695.839	0.09
696.163	0.1
696.487	0.1
696.811	0.09
697.135	0.09
697.458	0.1
697.782	0.1
698.106	0.1
698.429	0.1
698.753	0.09
699.076	0.09
699.4	0.09
699.723	0.09
700.046	0.08
700.37	0.1
700.693	0.09
701.016	0.09
701.339	0.09
701.662	0.1
701.985	0.1
702.308	0.09
702.631	0.1
702.954	0.09
703.277	0.09
703.599	0.09
703.922	0.08
704.245	0.09
704.567	0.09
704.89	0.09
705.212	0.09
705.535	0.08
705.857	0.08
706.179	0.08
706.502	0.08
706.824	0.08
707.146	0.07
707.468	0.09
707.79	0.08
708.112	0.08
708.434	0.09
708.756	0.08
709.078	0.09
709.399	0.09
709.721	0.08
710.043	0.08
710.364	0.08
710.686	0.08
711.007	0.08
711.329	0.09
711.65	0.08
711.972	0.08
712.293	0.09
712.614	0.09
712.935	0.09
713.256	0.08
713.577	0.08
713.898	0.08
714.219	0.08
714.54	0.08
714.861	0.07
715.182	0.08
715.503	0.08
715.823	0.08
716.144	0.08
716.464	0.07
716.785	0.07
717.105	0.07
717.426	0.07
717.746	0.07
718.066	0.07
718.387	0.07
718.707	0.07
719.027	0.07
719.347	0.06
719.667	0.07
719.987	0.07
720.307	0.06
720.627	0.07
720.947	0.07
721.266	0.07
721.586	0.06
721.906	0.06
722.225	0.06
722.545	0.06
722.864	0.06
723.184	0.07
723.503	0.06
