Data from 12-12-AQDScycling_Absorbance__310__00310.txt Node

Date: Tue Dec 12 12:14:14 EST 2023
User: kyuminlee
Spectrometer: FLMS00943
Trigger mode: 0
Integration Time (sec): 1.000000E-1
Scans to average: 1
Electric dark correction enabled: true
Nonlinearity correction enabled: false
Boxcar width: 0
XAxis mode: Wavelengths
Number of Pixels in Spectrum: 2048
>>>>>Begin Spectral Data<<<<<
179.651	-0
180.037	-0
180.424	-0
180.81	0.05
181.197	0.36
181.583	-0
181.97	-0.41
182.356	-0
182.743	-1.45
183.129	0.05
183.515	-0
183.901	-0
184.288	0.11
184.674	-0
185.06	-0.67
185.446	-0
185.832	-0
186.218	-0.01
186.604	0.57
186.99	-0
187.376	-0
187.762	0.63
188.148	-0
188.534	-0.11
188.92	0.07
189.305	0.1
189.691	0.24
190.077	0.24
190.463	0.11
190.848	0.24
191.234	0.11
191.619	0.1
192.005	0.04
192.391	0.18
192.776	0.09
193.161	0.19
193.547	0.24
193.932	0.01
194.318	0.04
194.703	0.12
195.088	0.27
195.473	0.26
195.859	0.2
196.244	0.19
196.629	0.08
197.014	0.16
197.399	0.08
197.784	0.48
198.169	0.18
198.554	0.13
198.939	0.15
199.324	0.1
199.709	0.22
200.094	0.1
200.478	0.07
200.863	0.21
201.248	0.24
201.633	0.21
202.017	0.2
202.402	0.09
202.787	0.06
203.171	0.1
203.556	0.3
203.94	0.09
204.325	0.34
204.709	0.13
205.093	0.23
205.478	0.25
205.862	-0.04
206.246	0.12
206.631	0.12
207.015	0.12
207.399	0.17
207.783	0.17
208.167	0.25
208.551	0.32
208.935	0.2
209.319	0.13
209.703	0.27
210.087	0.27
210.471	0
210.855	0.24
211.239	0.28
211.623	0.19
212.007	0.27
212.39	0.37
212.774	0.27
213.158	0.09
213.541	0.33
213.925	0.26
214.309	0.32
214.692	0.43
215.076	0.32
215.459	0.31
215.842	0.47
216.226	0.34
216.609	0.3
216.993	0.12
217.376	0.72
217.759	0.21
218.142	0.26
218.525	0.47
218.909	0.36
219.292	0.37
219.675	0.27
220.058	0.35
220.441	0.62
220.824	0.37
221.207	0.52
221.59	0.42
221.973	0.63
222.355	0.65
222.738	0.76
223.121	0.62
223.504	0.51
223.886	0.65
224.269	0.79
224.652	0.55
225.034	0.73
225.417	0.79
225.799	0.83
226.182	0.96
226.564	0.84
226.947	0.86
227.329	0.75
227.711	1.3
228.094	0.95
228.476	0.89
228.858	0.87
229.24	0.84
229.623	1.04
230.005	0.96
230.387	0.91
230.769	0.93
231.151	1
231.533	0.97
231.915	0.86
232.297	1.15
232.679	1.03
233.061	0.95
233.442	1.1
233.824	1.13
234.206	1.18
234.588	1.12
234.969	0.97
235.351	1.02
235.733	1
236.114	1.02
236.496	1.12
236.877	1.1
237.259	0.97
237.64	1.01
238.022	1.14
238.403	1
238.784	1.08
239.165	0.87
239.547	1.16
239.928	1.15
240.309	1.05
240.69	1.21
241.071	1.14
241.452	1.12
241.834	1.09
242.215	1.07
242.595	1.04
242.976	1.08
243.357	1.03
243.738	1.23
244.119	1.18
244.5	1.09
244.881	1.35
245.261	1.32
245.642	1.19
246.023	1.13
246.403	1.24
246.784	1.33
247.164	1.31
247.545	1.18
247.925	1.24
248.306	1.1
248.686	1.39
249.067	1.18
249.447	1.38
249.827	1.41
250.207	1.43
250.588	1.38
250.968	1.52
251.348	1.42
251.728	1.46
252.108	1.28
252.488	1.42
252.868	1.29
253.248	1.35
253.628	1.48
254.008	1.4
254.388	1.31
254.768	1.3
255.147	1.45
255.527	1.27
255.907	1.36
256.287	1.32
256.666	1.45
257.046	1.59
257.425	1.61
257.805	1.37
258.184	1.39
258.564	1.39
258.943	1.48
259.323	1.59
259.702	1.41
260.081	1.51
260.461	1.49
260.84	1.41
261.219	1.65
261.598	1.49
261.977	1.56
262.356	1.54
262.736	1.38
263.115	1.54
263.494	1.4
263.873	1.58
264.251	1.48
264.63	1.45
265.009	1.42
265.388	1.43
265.767	1.35
266.145	1.44
266.524	1.51
266.903	1.41
267.281	1.45
267.66	1.59
268.039	1.56
268.417	1.38
268.796	1.47
269.174	1.56
269.552	1.42
269.931	1.51
270.309	1.46
270.687	1.63
271.066	1.81
271.444	1.37
271.822	1.46
272.2	1.44
272.578	1.29
272.956	1.55
273.334	1.34
273.712	1.53
274.09	1.44
274.468	1.5
274.846	1.29
275.224	1.38
275.602	1.57
275.98	1.78
276.357	1.49
276.735	1.42
277.113	1.57
277.49	1.39
277.868	1.26
278.246	1.54
278.623	1.31
279.001	1.39
279.378	1.5
279.756	1.67
280.133	1.61
280.51	1.4
280.888	1.41
281.265	1.42
281.642	1.49
282.019	1.58
282.396	1.49
282.773	1.47
283.151	1.43
283.528	1.53
283.905	1.43
284.282	1.61
284.659	1.54
285.035	1.43
285.412	1.33
285.789	1.58
286.166	1.42
286.543	1.38
286.919	1.62
287.296	1.38
287.673	1.48
288.049	1.52
288.426	1.7
288.802	1.55
289.179	1.62
289.555	1.54
289.932	1.41
290.308	1.33
290.684	1.42
291.061	1.32
291.437	1.58
291.813	1.33
292.189	1.35
292.565	1.33
292.942	1.33
293.318	1.4
293.694	1.48
294.07	1.4
294.446	1.36
294.822	1.56
295.197	1.48
295.573	1.58
295.949	1.45
296.325	1.44
296.701	1.42
297.076	1.5
297.452	1.63
297.828	1.51
298.203	1.71
298.579	1.37
298.954	1.59
299.33	1.44
299.705	1.43
300.081	1.53
300.456	1.41
300.831	1.37
301.206	1.3
301.582	1.38
301.957	1.35
302.332	1.45
302.707	1.36
303.082	1.31
303.457	1.3
303.832	1.32
304.207	1.26
304.582	1.31
304.957	1.3
305.332	1.26
305.707	1.25
306.082	1.23
306.456	1.31
306.831	1.24
307.206	1.3
307.58	1.27
307.955	1.25
308.33	1.15
308.704	1.19
309.079	1.17
309.453	1.28
309.828	1.19
310.202	1.13
310.576	1.09
310.951	1.16
311.325	1.11
311.699	1.12
312.073	1.1
312.447	1.07
312.821	1.13
313.196	1.1
313.57	1.12
313.944	1.1
314.317	1.04
314.691	1.15
315.065	1.13
315.439	1.1
315.813	1.17
316.187	1.07
316.56	1.19
316.934	1.2
317.308	1.06
317.681	1.11
318.055	1.09
318.428	1.08
318.802	1.12
319.175	1.17
319.549	1.1
319.922	1.06
320.295	1.14
320.669	1.19
321.042	1.06
321.415	1.2
321.788	1.1
322.162	1.12
322.535	1.16
322.908	1.07
323.281	1.06
323.654	1.14
324.027	1.11
324.4	1.11
324.773	1.16
325.145	1.16
325.518	1.11
325.891	1.15
326.264	1.22
326.636	1.13
327.009	1.06
327.382	1.13
327.754	1.16
328.127	1.11
328.499	1.15
328.872	1.16
329.244	1.15
329.616	1.18
329.989	1.13
330.361	1.13
330.733	1.19
331.106	1.1
331.478	1.2
331.85	1.11
332.222	1.2
332.594	1.23
332.966	1.18
333.338	1.25
333.71	1.21
334.082	1.27
334.454	1.19
334.826	1.16
335.197	1.23
335.569	1.21
335.941	1.19
336.312	1.26
336.684	1.15
337.056	1.17
337.427	1.22
337.799	1.27
338.17	1.26
338.542	1.2
338.913	1.26
339.284	1.25
339.656	1.21
340.027	1.33
340.398	1.23
340.769	1.23
341.141	1.39
341.512	1.27
341.883	1.29
342.254	1.28
342.625	1.23
342.996	1.32
343.367	1.29
343.738	1.2
344.108	1.21
344.479	1.34
344.85	1.23
345.221	1.27
345.591	1.17
345.962	1.27
346.333	1.28
346.703	1.23
347.074	1.29
347.444	1.2
347.815	1.3
348.185	1.31
348.556	1.29
348.926	1.2
349.296	1.32
349.666	1.18
350.037	1.17
350.407	1.26
350.777	1.21
351.147	1.29
351.517	1.34
351.887	1.29
352.257	1.34
352.627	1.25
352.997	1.26
353.367	1.31
353.737	1.34
354.106	1.3
354.476	1.33
354.846	1.48
355.216	1.44
355.585	1.45
355.955	1.4
356.324	1.39
356.694	1.39
357.063	1.36
357.433	1.4
357.802	1.4
358.171	1.4
358.541	1.38
358.91	1.56
359.279	1.4
359.648	1.4
360.017	1.59
360.387	1.52
360.756	1.39
361.125	1.45
361.494	1.52
361.863	1.55
362.231	1.47
362.6	1.41
362.969	1.51
363.338	1.46
363.707	1.5
364.075	1.79
364.444	1.37
364.813	1.45
365.181	1.45
365.55	1.42
365.918	1.69
366.287	1.54
366.655	1.63
367.024	1.57
367.392	1.66
367.76	1.51
368.128	1.55
368.497	1.56
368.865	1.51
369.233	1.55
369.601	1.47
369.969	1.57
370.337	1.62
370.705	1.54
371.073	1.6
371.441	1.6
371.809	1.51
372.177	1.47
372.544	1.66
372.912	1.51
373.28	1.55
373.647	1.56
374.015	1.46
374.383	1.81
374.75	1.53
375.118	1.66
375.485	1.57
375.853	1.66
376.22	1.44
376.587	1.55
376.955	1.55
377.322	1.64
377.689	1.52
378.056	1.54
378.423	1.52
378.79	1.55
379.157	1.64
379.524	1.6
379.891	1.53
380.258	1.74
380.625	1.47
380.992	1.65
381.359	1.58
381.726	1.68
382.092	1.55
382.459	1.67
382.826	1.45
383.192	1.63
383.559	1.73
383.925	1.69
384.292	1.52
384.658	1.71
385.025	1.53
385.391	1.57
385.757	1.62
386.123	1.59
386.49	1.6
386.856	1.59
387.222	1.61
387.588	1.52
387.954	1.67
388.32	1.73
388.686	1.56
389.052	1.45
389.418	1.6
389.784	1.55
390.15	1.59
390.515	1.39
390.881	1.63
391.247	1.57
391.613	1.67
391.978	1.44
392.344	1.59
392.709	1.71
393.075	1.64
393.44	1.57
393.806	1.7
394.171	1.54
394.536	1.55
394.902	1.58
395.267	1.49
395.632	1.54
395.997	1.58
396.362	1.47
396.727	1.54
397.092	1.49
397.457	1.58
397.822	1.49
398.187	1.54
398.552	1.52
398.917	1.69
399.282	1.39
399.646	1.46
400.011	1.59
400.376	1.54
400.74	1.56
401.105	1.46
401.47	1.66
401.834	1.44
402.199	1.64
402.563	1.52
402.927	1.49
403.292	1.61
403.656	1.56
404.02	1.76
404.384	1.55
404.749	1.59
405.113	1.67
405.477	1.61
405.841	1.7
406.205	1.62
406.569	1.54
406.933	1.48
407.296	1.62
407.66	1.48
408.024	1.67
408.388	1.66
408.752	1.71
409.115	1.63
409.479	1.63
409.842	1.55
410.206	1.54
410.569	1.45
410.933	1.48
411.296	1.47
411.66	1.83
412.023	1.55
412.386	1.52
412.749	1.41
413.113	1.51
413.476	1.41
413.839	1.44
414.202	1.48
414.565	1.44
414.928	1.52
415.291	1.42
415.654	1.52
416.017	1.77
416.38	1.44
416.742	1.4
417.105	1.46
417.468	1.52
417.83	1.41
418.193	1.47
418.556	1.52
418.918	1.38
419.281	1.49
419.643	1.73
420.005	1.53
420.368	1.42
420.73	1.36
421.092	1.53
421.455	1.57
421.817	1.38
422.179	1.43
422.541	1.44
422.903	1.54
423.265	1.55
423.627	1.44
423.989	1.5
424.351	1.43
424.713	1.43
425.075	1.33
425.436	1.44
425.798	1.42
426.16	1.49
426.521	1.44
426.883	1.47
427.245	1.42
427.606	1.4
427.967	1.29
428.329	1.42
428.69	1.49
429.052	1.4
429.413	1.44
429.774	1.45
430.135	1.5
430.497	1.5
430.858	1.38
431.219	1.47
431.58	1.39
431.941	1.39
432.302	1.41
432.663	1.45
433.024	1.4
433.384	1.51
433.745	1.34
434.106	1.47
434.467	1.4
434.827	1.41
435.188	1.42
435.548	1.46
435.909	1.43
436.269	1.5
436.63	1.34
436.99	1.4
437.351	1.3
437.711	1.32
438.071	1.28
438.431	1.28
438.792	1.33
439.152	1.3
439.512	1.37
439.872	1.38
440.232	1.33
440.592	1.33
440.952	1.31
441.312	1.25
441.671	1.34
442.031	1.32
442.391	1.3
442.751	1.34
443.11	1.34
443.47	1.22
443.83	1.23
444.189	1.21
444.549	1.27
444.908	1.3
445.267	1.28
445.627	1.28
445.986	1.19
446.345	1.16
446.705	1.2
447.064	1.2
447.423	1.22
447.782	1.23
448.141	1.2
448.5	1.12
448.859	1.15
449.218	1.18
449.577	1.15
449.936	1.18
450.295	1.14
450.653	1.13
451.012	1.13
451.371	1.14
451.729	1.13
452.088	1.12
452.447	1.12
452.805	1.12
453.163	1.12
453.522	1.09
453.88	1.06
454.239	1.09
454.597	1.04
454.955	1.03
455.313	1.03
455.671	1.02
456.029	1.02
456.388	1.01
456.746	1.01
457.104	0.98
457.461	0.97
457.819	0.95
458.177	0.95
458.535	0.93
458.893	0.93
459.25	0.91
459.608	0.91
459.966	0.89
460.323	0.88
460.681	0.86
461.038	0.88
461.396	0.86
461.753	0.85
462.111	0.83
462.468	0.81
462.825	0.8
463.182	0.78
463.54	0.78
463.897	0.79
464.254	0.76
464.611	0.75
464.968	0.75
465.325	0.74
465.682	0.74
466.039	0.72
466.395	0.71
466.752	0.7
467.109	0.67
467.466	0.67
467.822	0.67
468.179	0.65
468.535	0.65
468.892	0.64
469.248	0.62
469.605	0.61
469.961	0.61
470.318	0.62
470.674	0.6
471.03	0.59
471.386	0.59
471.743	0.57
472.099	0.55
472.455	0.56
472.811	0.54
473.167	0.53
473.523	0.52
473.879	0.51
474.235	0.5
474.59	0.5
474.946	0.49
475.302	0.5
475.657	0.47
476.013	0.47
476.369	0.45
476.724	0.47
477.08	0.46
477.435	0.44
477.791	0.44
478.146	0.43
478.501	0.42
478.857	0.43
479.212	0.41
479.567	0.4
479.922	0.39
480.277	0.39
480.632	0.38
480.987	0.38
481.342	0.37
481.697	0.36
482.052	0.36
482.407	0.35
482.762	0.35
483.116	0.34
483.471	0.33
483.826	0.33
484.18	0.33
484.535	0.32
484.89	0.31
485.244	0.31
485.598	0.31
485.953	0.31
486.307	0.3
486.661	0.3
487.016	0.29
487.37	0.29
487.724	0.28
488.078	0.28
488.432	0.28
488.786	0.27
489.14	0.27
489.494	0.26
489.848	0.25
490.202	0.25
490.556	0.25
490.91	0.25
491.263	0.24
491.617	0.25
491.971	0.24
492.324	0.23
492.678	0.24
493.031	0.24
493.385	0.23
493.738	0.23
494.091	0.22
494.445	0.23
494.798	0.22
495.151	0.21
495.504	0.22
495.857	0.21
496.21	0.21
496.564	0.21
496.916	0.21
497.269	0.2
497.622	0.2
497.975	0.19
498.328	0.21
498.681	0.2
499.033	0.19
499.386	0.19
499.739	0.19
500.091	0.19
500.444	0.18
500.796	0.18
501.149	0.18
501.501	0.18
501.854	0.18
502.206	0.17
502.558	0.17
502.91	0.17
503.263	0.17
503.615	0.18
503.967	0.17
504.319	0.17
504.671	0.17
505.023	0.16
505.375	0.16
505.726	0.16
506.078	0.16
506.43	0.16
506.782	0.15
507.133	0.16
507.485	0.16
507.837	0.16
508.188	0.17
508.54	0.15
508.891	0.16
509.243	0.15
509.594	0.15
509.945	0.15
510.296	0.15
510.648	0.15
510.999	0.15
511.35	0.14
511.701	0.15
512.052	0.16
512.403	0.15
512.754	0.14
513.105	0.14
513.456	0.15
513.807	0.14
514.157	0.14
514.508	0.14
514.859	0.14
515.209	0.14
515.56	0.15
515.91	0.14
516.261	0.14
516.611	0.14
516.962	0.15
517.312	0.14
517.662	0.14
518.013	0.14
518.363	0.14
518.713	0.14
519.063	0.14
519.413	0.14
519.763	0.14
520.113	0.14
520.463	0.14
520.813	0.14
521.163	0.14
521.512	0.14
521.862	0.14
522.212	0.14
522.562	0.14
522.911	0.14
523.261	0.14
523.61	0.14
523.96	0.14
524.309	0.14
524.658	0.14
525.008	0.14
525.357	0.14
525.706	0.14
526.056	0.14
526.405	0.14
526.754	0.14
527.103	0.13
527.452	0.13
527.801	0.14
528.15	0.14
528.499	0.13
528.847	0.14
529.196	0.14
529.545	0.14
529.893	0.14
530.242	0.14
530.591	0.14
530.939	0.15
531.288	0.15
531.636	0.15
531.985	0.15
532.333	0.14
532.681	0.15
533.029	0.15
533.378	0.15
533.726	0.14
534.074	0.15
534.422	0.14
534.77	0.15
535.118	0.14
535.466	0.14
535.814	0.14
536.162	0.14
536.509	0.15
536.857	0.15
537.205	0.14
537.552	0.14
537.9	0.15
538.248	0.14
538.595	0.15
538.943	0.15
539.29	0.15
539.637	0.15
539.985	0.15
540.332	0.14
540.679	0.14
541.026	0.14
541.373	0.14
541.721	0.13
542.068	0.14
542.415	0.14
542.762	0.13
543.108	0.14
543.455	0.12
543.802	0.13
544.149	0.13
544.496	0.14
544.842	0.13
545.189	0.12
545.535	0.13
545.882	0.13
546.228	0.13
546.575	0.13
546.921	0.13
547.267	0.13
547.614	0.13
547.96	0.13
548.306	0.13
548.652	0.13
548.998	0.14
549.344	0.13
549.69	0.13
550.036	0.14
550.382	0.14
550.728	0.13
551.074	0.14
551.42	0.14
551.765	0.14
552.111	0.14
552.457	0.15
552.802	0.13
553.148	0.14
553.493	0.14
553.839	0.14
554.184	0.15
554.529	0.14
554.875	0.15
555.22	0.14
555.565	0.15
555.91	0.14
556.255	0.15
556.6	0.14
556.945	0.14
557.29	0.13
557.635	0.14
557.98	0.15
558.325	0.14
558.67	0.14
559.014	0.14
559.359	0.14
559.704	0.14
560.048	0.14
560.393	0.14
560.737	0.13
561.082	0.14
561.426	0.12
561.77	0.14
562.115	0.13
562.459	0.13
562.803	0.13
563.147	0.13
563.491	0.13
563.835	0.14
564.179	0.13
564.523	0.13
564.867	0.13
565.211	0.13
565.555	0.14
565.899	0.14
566.242	0.13
566.586	0.12
566.93	0.13
567.273	0.15
567.617	0.14
567.96	0.14
568.304	0.14
568.647	0.14
568.99	0.15
569.334	0.15
569.677	0.14
570.02	0.15
570.363	0.14
570.706	0.13
571.049	0.14
571.392	0.14
571.735	0.14
572.078	0.14
572.421	0.15
572.764	0.14
573.106	0.14
573.449	0.13
573.792	0.13
574.134	0.13
574.477	0.14
574.819	0.14
575.162	0.13
575.504	0.13
575.847	0.14
576.189	0.14
576.531	0.13
576.873	0.14
577.215	0.14
577.558	0.14
577.9	0.13
578.242	0.14
578.584	0.14
578.926	0.13
579.267	0.14
579.609	0.14
579.951	0.14
580.293	0.13
580.634	0.14
580.976	0.14
581.318	0.14
581.659	0.13
582.001	0.13
582.342	0.13
582.683	0.14
583.025	0.13
583.366	0.14
583.707	0.14
584.049	0.14
584.39	0.13
584.731	0.13
585.072	0.13
585.413	0.13
585.754	0.14
586.095	0.14
586.435	0.14
586.776	0.14
587.117	0.13
587.458	0.12
587.798	0.13
588.139	0.14
588.48	0.13
588.82	0.13
589.161	0.13
589.501	0.13
589.841	0.13
590.182	0.13
590.522	0.13
590.862	0.13
591.202	0.13
591.542	0.13
591.882	0.13
592.222	0.13
592.562	0.13
592.902	0.13
593.242	0.13
593.582	0.14
593.922	0.13
594.261	0.13
594.601	0.13
594.941	0.14
595.28	0.13
595.62	0.13
595.959	0.13
596.299	0.13
596.638	0.13
596.977	0.12
597.317	0.14
597.656	0.14
597.995	0.13
598.334	0.13
598.673	0.14
599.012	0.13
599.351	0.14
599.69	0.12
600.029	0.14
600.368	0.13
600.707	0.14
601.046	0.12
601.384	0.13
601.723	0.13
602.061	0.13
602.4	0.14
602.738	0.13
603.077	0.14
603.415	0.13
603.754	0.13
604.092	0.13
604.43	0.13
604.768	0.13
605.107	0.13
605.445	0.13
605.783	0.13
606.121	0.12
606.459	0.13
606.796	0.13
607.134	0.12
607.472	0.13
607.81	0.13
608.148	0.12
608.485	0.13
608.823	0.13
609.16	0.12
609.498	0.13
609.835	0.12
610.173	0.13
610.51	0.14
610.847	0.13
611.185	0.14
611.522	0.14
611.859	0.14
612.196	0.14
612.533	0.14
612.87	0.14
613.207	0.13
613.544	0.14
613.881	0.15
614.217	0.14
614.554	0.14
614.891	0.14
615.228	0.14
615.564	0.14
615.901	0.13
616.237	0.13
616.574	0.14
616.91	0.14
617.246	0.14
617.583	0.14
617.919	0.14
618.255	0.15
618.591	0.14
618.927	0.14
619.263	0.14
619.599	0.15
619.935	0.14
620.271	0.14
620.607	0.14
620.943	0.13
621.279	0.14
621.614	0.14
621.95	0.14
622.286	0.13
622.621	0.12
622.957	0.13
623.292	0.12
623.627	0.12
623.963	0.12
624.298	0.13
624.633	0.12
624.968	0.12
625.304	0.12
625.639	0.12
625.974	0.12
626.309	0.12
626.644	0.13
626.979	0.13
627.313	0.13
627.648	0.12
627.983	0.13
628.318	0.12
628.652	0.12
628.987	0.12
629.321	0.12
629.656	0.11
629.99	0.11
630.325	0.12
630.659	0.12
630.993	0.11
631.327	0.12
631.662	0.12
631.996	0.12
632.33	0.12
632.664	0.12
632.998	0.11
633.332	0.11
633.666	0.12
633.999	0.11
634.333	0.11
634.667	0.11
635.001	0.11
635.334	0.11
635.668	0.11
636.001	0.11
636.335	0.11
636.668	0.11
637.001	0.11
637.335	0.11
637.668	0.11
638.001	0.11
638.334	0.11
638.668	0.11
639.001	0.11
639.334	0.1
639.667	0.1
639.999	0.11
640.332	0.1
640.665	0.1
640.998	0.1
641.331	0.11
641.663	0.1
641.996	0.1
642.328	0.11
642.661	0.11
642.993	0.11
643.326	0.11
643.658	0.1
643.99	0.1
644.323	0.1
644.655	0.1
644.987	0.11
645.319	0.12
645.651	0.11
645.983	0.1
646.315	0.1
646.647	0.11
646.979	0.11
647.31	0.11
647.642	0.11
647.974	0.1
648.305	0.12
648.637	0.11
648.968	0.11
649.3	0.11
649.631	0.11
649.963	0.11
650.294	0.11
650.625	0.11
650.957	0.11
651.288	0.11
651.619	0.11
651.95	0.11
652.281	0.12
652.612	0.11
652.943	0.11
653.274	0.11
653.604	0.11
653.935	0.1
654.266	0.11
654.596	0.11
654.927	0.11
655.258	0.11
655.588	0.12
655.918	0.11
656.249	0.1
656.579	0.11
656.909	0.11
657.24	0.11
657.57	0.11
657.9	0.11
658.23	0.11
658.56	0.11
658.89	0.12
659.22	0.11
659.55	0.11
659.88	0.11
660.209	0.12
660.539	0.13
660.869	0.12
661.198	0.12
661.528	0.12
661.857	0.11
662.187	0.12
662.516	0.12
662.846	0.11
663.175	0.12
663.504	0.11
663.833	0.11
664.163	0.12
664.492	0.11
664.821	0.11
665.15	0.11
665.479	0.11
665.807	0.1
666.136	0.11
666.465	0.1
666.794	0.1
667.122	0.11
667.451	0.1
667.78	0.1
668.108	0.11
668.437	0.1
668.765	0.1
669.093	0.1
669.422	0.1
669.75	0.1
670.078	0.11
670.406	0.1
670.734	0.11
671.062	0.1
671.39	0.1
671.718	0.1
672.046	0.1
672.374	0.1
672.702	0.1
673.029	0.1
673.357	0.1
673.685	0.11
674.012	0.11
674.34	0.1
674.667	0.11
674.995	0.1
675.322	0.11
675.649	0.1
675.977	0.1
676.304	0.1
676.631	0.1
676.958	0.1
677.285	0.1
677.612	0.1
677.939	0.1
678.266	0.11
678.593	0.1
678.92	0.1
679.246	0.1
679.573	0.1
679.9	0.09
680.226	0.09
680.553	0.09
680.879	0.1
681.206	0.09
681.532	0.09
681.858	0.1
682.184	0.09
682.511	0.1
682.837	0.09
683.163	0.1
683.489	0.09
683.815	0.09
684.141	0.09
684.467	0.09
684.793	0.09
685.118	0.09
685.444	0.09
685.77	0.09
686.095	0.09
686.421	0.1
686.746	0.1
687.072	0.1
687.397	0.09
687.723	0.1
688.048	0.1
688.373	0.1
688.698	0.1
689.023	0.1
689.349	0.1
689.674	0.1
689.999	0.09
690.323	0.09
690.648	0.09
690.973	0.09
691.298	0.09
691.623	0.09
691.947	0.09
692.272	0.09
692.596	0.09
692.921	0.08
693.245	0.08
693.57	0.09
693.894	0.09
694.218	0.09
694.543	0.08
694.867	0.08
695.191	0.08
695.515	0.09
695.839	0.08
696.163	0.08
696.487	0.08
696.811	0.08
697.135	0.09
697.458	0.08
697.782	0.09
698.106	0.09
698.429	0.09
698.753	0.08
699.076	0.09
699.4	0.08
699.723	0.08
700.046	0.08
700.37	0.09
700.693	0.08
701.016	0.08
701.339	0.08
701.662	0.09
701.985	0.09
702.308	0.08
702.631	0.08
702.954	0.09
703.277	0.08
703.599	0.08
703.922	0.07
704.245	0.08
704.567	0.08
704.89	0.08
705.212	0.08
705.535	0.08
705.857	0.07
706.179	0.07
706.502	0.08
706.824	0.07
707.146	0.07
707.468	0.07
707.79	0.08
708.112	0.08
708.434	0.07
708.756	0.08
709.078	0.07
709.399	0.08
709.721	0.07
710.043	0.08
710.364	0.08
710.686	0.07
711.007	0.08
711.329	0.08
711.65	0.08
711.972	0.08
712.293	0.08
712.614	0.08
712.935	0.08
713.256	0.08
713.577	0.08
713.898	0.07
714.219	0.08
714.54	0.07
714.861	0.07
715.182	0.07
715.503	0.07
715.823	0.07
716.144	0.07
716.464	0.06
716.785	0.07
717.105	0.07
717.426	0.07
717.746	0.07
718.066	0.06
718.387	0.07
718.707	0.06
719.027	0.07
719.347	0.06
719.667	0.06
719.987	0.06
720.307	0.06
720.627	0.06
720.947	0.06
721.266	0.06
721.586	0.05
721.906	0.06
722.225	0.05
722.545	0.06
722.864	0.06
723.184	0.06
723.503	0.06
723.823	0.07
724.142	0.05
724.461	0.05
724.78	0.06
