Data from 12-12-AQDScycling_Absorbance__178__00178.txt Node

Date: Tue Dec 12 11:41:14 EST 2023
User: kyuminlee
Spectrometer: FLMS00943
Trigger mode: 0
Integration Time (sec): 1.000000E-1
Scans to average: 1
Electric dark correction enabled: true
Nonlinearity correction enabled: false
Boxcar width: 0
XAxis mode: Wavelengths
Number of Pixels in Spectrum: 2048
>>>>>Begin Spectral Data<<<<<
179.651	1.21
180.037	1.21
180.424	1.21
180.81	0.39
181.197	0.44
181.583	-0.21
181.97	-0.3
182.356	-0
182.743	-1.21
183.129	0.91
183.515	0.44
183.901	-2.1
184.288	0.02
184.674	-0
185.06	-0
185.446	-0
185.832	-0.81
186.218	0.06
186.604	-0.13
186.99	-0
187.376	0.05
187.762	-0
188.148	-0
188.534	-0
188.92	0.02
189.305	0.13
189.691	0.05
190.077	0.16
190.463	0.15
190.848	0.04
191.234	-0.01
191.619	0.04
192.005	0.17
192.391	0.2
192.776	0.15
193.161	0.11
193.547	0.11
193.932	-0.02
194.318	0.02
194.703	0.05
195.088	0.15
195.473	0.24
195.859	0.2
196.244	0.08
196.629	0.2
197.014	0.01
197.399	0.19
197.784	0.31
198.169	0.12
198.554	0.16
198.939	0.17
199.324	0.06
199.709	0.13
200.094	0.15
200.478	0.05
200.863	0.1
201.248	0.2
201.633	0.11
202.017	0.09
202.402	0.2
202.787	0.08
203.171	0.09
203.556	0.25
203.94	0.15
204.325	0.09
204.709	0.21
205.093	0.08
205.478	0.11
205.862	0.03
206.246	0.07
206.631	0.07
207.015	0.17
207.399	0.13
207.783	0.18
208.167	0.15
208.551	0.31
208.935	0.15
209.319	0.08
209.703	0.1
210.087	0.35
210.471	0.11
210.855	0.21
211.239	0.21
211.623	0.2
212.007	0.27
212.39	0.29
212.774	0.05
213.158	0.06
213.541	0.2
213.925	0.17
214.309	0.18
214.692	0.45
215.076	0.21
215.459	0.1
215.842	0.13
216.226	0.19
216.609	0.24
216.993	0.23
217.376	0.38
217.759	0.29
218.142	0.23
218.525	0.64
218.909	0.4
219.292	0.35
219.675	0.43
220.058	0.37
220.441	0.47
220.824	0.4
221.207	0.48
221.59	0.51
221.973	0.51
222.355	0.55
222.738	0.61
223.121	0.55
223.504	0.53
223.886	0.66
224.269	0.66
224.652	0.66
225.034	0.68
225.417	0.71
225.799	0.84
226.182	0.76
226.564	0.82
226.947	0.73
227.329	0.72
227.711	1.04
228.094	0.88
228.476	1.03
228.858	0.81
229.24	0.78
229.623	0.93
230.005	0.88
230.387	0.83
230.769	0.78
231.151	0.9
231.533	0.99
231.915	0.85
232.297	1.05
232.679	0.91
233.061	1.09
233.442	1.09
233.824	0.93
234.206	1.1
234.588	0.91
234.969	0.99
235.351	0.88
235.733	1.07
236.114	1.12
236.496	1.06
236.877	1.06
237.259	1.13
237.64	0.99
238.022	0.94
238.403	1.03
238.784	1.04
239.165	0.92
239.547	1.12
239.928	0.99
240.309	1.04
240.69	1.06
241.071	0.98
241.452	1.13
241.834	1
242.215	0.97
242.595	0.96
242.976	1.17
243.357	1.05
243.738	0.97
244.119	1.35
244.5	1.05
244.881	1.24
245.261	1.18
245.642	1.02
246.023	1.2
246.403	1.16
246.784	1.23
247.164	1.23
247.545	1.19
247.925	1.28
248.306	1.26
248.686	1.33
249.067	1.24
249.447	1.38
249.827	1.45
250.207	1.48
250.588	1.32
250.968	1.49
251.348	1.3
251.728	1.38
252.108	1.35
252.488	1.29
252.868	1.37
253.248	1.22
253.628	1.37
254.008	1.72
254.388	1.27
254.768	1.56
255.147	1.42
255.527	1.33
255.907	1.38
256.287	1.3
256.666	1.5
257.046	1.39
257.425	1.47
257.805	1.37
258.184	1.3
258.564	1.42
258.943	1.33
259.323	1.5
259.702	1.35
260.081	1.41
260.461	1.48
260.84	1.47
261.219	1.55
261.598	1.46
261.977	1.43
262.356	1.58
262.736	1.36
263.115	1.57
263.494	1.37
263.873	1.42
264.251	1.45
264.63	1.43
265.009	1.35
265.388	1.53
265.767	1.34
266.145	1.29
266.524	1.56
266.903	1.48
267.281	1.4
267.66	1.36
268.039	1.33
268.417	1.35
268.796	1.45
269.174	1.33
269.552	1.32
269.931	1.39
270.309	1.36
270.687	1.51
271.066	1.57
271.444	1.31
271.822	1.32
272.2	1.46
272.578	1.49
272.956	1.35
273.334	1.36
273.712	1.38
274.09	1.53
274.468	1.4
274.846	1.29
275.224	1.33
275.602	1.43
275.98	1.53
276.357	1.53
276.735	1.42
277.113	1.48
277.49	1.48
277.868	1.28
278.246	1.45
278.623	1.4
279.001	1.27
279.378	1.29
279.756	1.57
280.133	1.54
280.51	1.4
280.888	1.33
281.265	1.33
281.642	1.44
282.019	1.52
282.396	1.68
282.773	1.37
283.151	1.47
283.528	1.49
283.905	1.41
284.282	1.61
284.659	1.42
285.035	1.27
285.412	1.31
285.789	1.58
286.166	1.57
286.543	1.49
286.919	1.57
287.296	1.46
287.673	1.66
288.049	1.5
288.426	1.55
288.802	1.41
289.179	1.43
289.555	1.75
289.932	1.44
290.308	1.4
290.684	1.38
291.061	1.28
291.437	1.45
291.813	1.41
292.189	1.24
292.565	1.28
292.942	1.26
293.318	1.51
293.694	1.43
294.07	1.31
294.446	1.44
294.822	1.51
295.197	1.47
295.573	1.36
295.949	1.34
296.325	1.66
296.701	1.49
297.076	1.63
297.452	1.56
297.828	1.47
298.203	1.53
298.579	1.5
298.954	1.47
299.33	1.31
299.705	1.37
300.081	1.46
300.456	1.48
300.831	1.43
301.206	1.46
301.582	1.49
301.957	1.32
302.332	1.45
302.707	1.29
303.082	1.35
303.457	1.43
303.832	1.35
304.207	1.3
304.582	1.34
304.957	1.39
305.332	1.41
305.707	1.37
306.082	1.41
306.456	1.47
306.831	1.33
307.206	1.31
307.58	1.41
307.955	1.4
308.33	1.36
308.704	1.37
309.079	1.33
309.453	1.43
309.828	1.36
310.202	1.27
310.576	1.31
310.951	1.41
311.325	1.31
311.699	1.27
312.073	1.26
312.447	1.37
312.821	1.22
313.196	1.27
313.57	1.21
313.944	1.28
314.317	1.27
314.691	1.3
315.065	1.34
315.439	1.39
315.813	1.41
316.187	1.27
316.56	1.47
316.934	1.34
317.308	1.35
317.681	1.38
318.055	1.47
318.428	1.43
318.802	1.35
319.175	1.3
319.549	1.31
319.922	1.28
320.295	1.31
320.669	1.41
321.042	1.31
321.415	1.48
321.788	1.32
322.162	1.33
322.535	1.35
322.908	1.34
323.281	1.3
323.654	1.44
324.027	1.4
324.4	1.37
324.773	1.38
325.145	1.43
325.518	1.3
325.891	1.37
326.264	1.51
326.636	1.31
327.009	1.27
327.382	1.34
327.754	1.39
328.127	1.43
328.499	1.39
328.872	1.36
329.244	1.47
329.616	1.5
329.989	1.32
330.361	1.32
330.733	1.32
331.106	1.27
331.478	1.38
331.85	1.38
332.222	1.26
332.594	1.32
332.966	1.33
333.338	1.4
333.71	1.42
334.082	1.51
334.454	1.31
334.826	1.43
335.197	1.39
335.569	1.37
335.941	1.33
336.312	1.38
336.684	1.42
337.056	1.35
337.427	1.52
337.799	1.32
338.17	1.39
338.542	1.35
338.913	1.38
339.284	1.47
339.656	1.37
340.027	1.5
340.398	1.48
340.769	1.43
341.141	1.52
341.512	1.42
341.883	1.41
342.254	1.43
342.625	1.36
342.996	1.44
343.367	1.43
343.738	1.43
344.108	1.36
344.479	1.46
344.85	1.35
345.221	1.43
345.591	1.3
345.962	1.29
346.333	1.32
346.703	1.28
347.074	1.27
347.444	1.25
347.815	1.43
348.185	1.39
348.556	1.18
348.926	1.3
349.296	1.28
349.666	1.38
350.037	1.26
350.407	1.23
350.777	1.21
351.147	1.32
351.517	1.28
351.887	1.31
352.257	1.47
352.627	1.32
352.997	1.27
353.367	1.3
353.737	1.43
354.106	1.37
354.476	1.3
354.846	1.42
355.216	1.36
355.585	1.43
355.955	1.31
356.324	1.39
356.694	1.37
357.063	1.26
357.433	1.36
357.802	1.3
358.171	1.33
358.541	1.37
358.91	1.39
359.279	1.4
359.648	1.35
360.017	1.43
360.387	1.46
360.756	1.34
361.125	1.36
361.494	1.46
361.863	1.29
362.231	1.43
362.6	1.39
362.969	1.41
363.338	1.36
363.707	1.36
364.075	1.36
364.444	1.28
364.813	1.37
365.181	1.37
365.55	1.34
365.918	1.44
366.287	1.39
366.655	1.54
367.024	1.47
367.392	1.42
367.76	1.36
368.128	1.39
368.497	1.35
368.865	1.42
369.233	1.47
369.601	1.44
369.969	1.37
370.337	1.35
370.705	1.4
371.073	1.33
371.441	1.39
371.809	1.43
372.177	1.39
372.544	1.41
372.912	1.44
373.28	1.45
373.647	1.46
374.015	1.57
374.383	1.56
374.75	1.56
375.118	1.52
375.485	1.51
375.853	1.56
376.22	1.41
376.587	1.45
376.955	1.42
377.322	1.49
377.689	1.47
378.056	1.42
378.423	1.5
378.79	1.42
379.157	1.57
379.524	1.48
379.891	1.4
380.258	1.47
380.625	1.38
380.992	1.47
381.359	1.44
381.726	1.71
382.092	1.39
382.459	1.38
382.826	1.5
383.192	1.51
383.559	1.57
383.925	1.46
384.292	1.46
384.658	1.64
385.025	1.39
385.391	1.67
385.757	1.54
386.123	1.55
386.49	1.5
386.856	1.49
387.222	1.63
387.588	1.51
387.954	1.75
388.32	1.62
388.686	1.57
389.052	1.48
389.418	1.58
389.784	1.41
390.15	1.64
390.515	1.33
390.881	1.62
391.247	1.45
391.613	1.65
391.978	1.45
392.344	1.56
392.709	1.68
393.075	1.5
393.44	1.52
393.806	1.53
394.171	1.45
394.536	1.45
394.902	1.54
395.267	1.42
395.632	1.48
395.997	1.45
396.362	1.53
396.727	1.48
397.092	1.46
397.457	1.45
397.822	1.59
398.187	1.52
398.552	1.51
398.917	1.68
399.282	1.42
399.646	1.54
400.011	1.63
400.376	1.46
400.74	1.45
401.105	1.43
401.47	1.49
401.834	1.53
402.199	1.49
402.563	1.48
402.927	1.41
403.292	1.52
403.656	1.51
404.02	1.41
404.384	1.63
404.749	1.43
405.113	1.61
405.477	1.56
405.841	1.5
406.205	1.41
406.569	1.45
406.933	1.4
407.296	1.36
407.66	1.47
408.024	1.41
408.388	1.52
408.752	1.42
409.115	1.46
409.479	1.53
409.842	1.4
410.206	1.39
410.569	1.36
410.933	1.4
411.296	1.32
411.66	1.41
412.023	1.23
412.386	1.39
412.749	1.31
413.113	1.44
413.476	1.38
413.839	1.35
414.202	1.29
414.565	1.23
414.928	1.31
415.291	1.38
415.654	1.27
416.017	1.39
416.38	1.26
416.742	1.25
417.105	1.3
417.468	1.24
417.83	1.28
418.193	1.32
418.556	1.35
418.918	1.23
419.281	1.31
419.643	1.28
420.005	1.28
420.368	1.28
420.73	1.27
421.092	1.32
421.455	1.23
421.817	1.19
422.179	1.29
422.541	1.27
422.903	1.32
423.265	1.37
423.627	1.26
423.989	1.27
424.351	1.21
424.713	1.26
425.075	1.21
425.436	1.19
425.798	1.28
426.16	1.3
426.521	1.28
426.883	1.26
427.245	1.2
427.606	1.2
427.967	1.18
428.329	1.21
428.69	1.28
429.052	1.2
429.413	1.27
429.774	1.24
430.135	1.27
430.497	1.25
430.858	1.22
431.219	1.19
431.58	1.11
431.941	1.17
432.302	1.17
432.663	1.18
433.024	1.26
433.384	1.24
433.745	1.13
434.106	1.2
434.467	1.21
434.827	1.16
435.188	1.15
435.548	1.19
435.909	1.18
436.269	1.23
436.63	1.16
436.99	1.12
437.351	1.11
437.711	1.17
438.071	1.13
438.431	1.09
438.792	1.12
439.152	1.09
439.512	1.11
439.872	1.1
440.232	1.11
440.592	1.12
440.952	1.09
441.312	1.07
441.671	1.11
442.031	1.06
442.391	1.07
442.751	1.11
443.11	1.08
443.47	1.05
443.83	1.01
444.189	1.02
444.549	1.01
444.908	1.01
445.267	1.04
445.627	1.02
445.986	1.01
446.345	0.98
446.705	0.99
447.064	1
447.423	0.98
447.782	1.01
448.141	0.96
448.5	0.93
448.859	0.94
449.218	0.94
449.577	0.96
449.936	0.97
450.295	0.95
450.653	0.92
451.012	0.94
451.371	0.91
451.729	0.9
452.088	0.93
452.447	0.92
452.805	0.92
453.163	0.9
453.522	0.88
453.88	0.87
454.239	0.87
454.597	0.85
454.955	0.84
455.313	0.84
455.671	0.85
456.029	0.83
456.388	0.81
456.746	0.81
457.104	0.82
457.461	0.8
457.819	0.79
458.177	0.77
458.535	0.77
458.893	0.77
459.25	0.77
459.608	0.75
459.966	0.73
460.323	0.73
460.681	0.72
461.038	0.7
461.396	0.71
461.753	0.69
462.111	0.69
462.468	0.68
462.825	0.66
463.182	0.66
463.54	0.66
463.897	0.65
464.254	0.64
464.611	0.64
464.968	0.62
465.325	0.63
465.682	0.61
466.039	0.61
466.395	0.59
466.752	0.59
467.109	0.57
467.466	0.58
467.822	0.57
468.179	0.55
468.535	0.55
468.892	0.54
469.248	0.53
469.605	0.52
469.961	0.52
470.318	0.53
470.674	0.51
471.03	0.5
471.386	0.5
471.743	0.49
472.099	0.48
472.455	0.48
472.811	0.46
473.167	0.47
473.523	0.46
473.879	0.44
474.235	0.44
474.59	0.43
474.946	0.42
475.302	0.43
475.657	0.41
476.013	0.42
476.369	0.4
476.724	0.4
477.08	0.4
477.435	0.39
477.791	0.38
478.146	0.38
478.501	0.37
478.857	0.37
479.212	0.37
479.567	0.37
479.922	0.35
480.277	0.35
480.632	0.34
480.987	0.35
481.342	0.34
481.697	0.33
482.052	0.33
482.407	0.32
482.762	0.31
483.116	0.31
483.471	0.31
483.826	0.29
484.18	0.29
484.535	0.29
484.89	0.29
485.244	0.29
485.598	0.29
485.953	0.28
486.307	0.28
486.661	0.28
487.016	0.27
487.37	0.27
487.724	0.27
488.078	0.26
488.432	0.26
488.786	0.26
489.14	0.25
489.494	0.25
489.848	0.25
490.202	0.23
490.556	0.24
490.91	0.24
491.263	0.24
491.617	0.24
491.971	0.23
492.324	0.23
492.678	0.23
493.031	0.23
493.385	0.22
493.738	0.22
494.091	0.22
494.445	0.22
494.798	0.22
495.151	0.21
495.504	0.21
495.857	0.21
496.21	0.21
496.564	0.21
496.916	0.21
497.269	0.2
497.622	0.21
497.975	0.2
498.328	0.21
498.681	0.21
499.033	0.2
499.386	0.2
499.739	0.2
500.091	0.19
500.444	0.19
500.796	0.19
501.149	0.19
501.501	0.19
501.854	0.19
502.206	0.19
502.558	0.19
502.91	0.19
503.263	0.19
503.615	0.19
503.967	0.18
504.319	0.19
504.671	0.18
505.023	0.18
505.375	0.18
505.726	0.18
506.078	0.18
506.43	0.17
506.782	0.17
507.133	0.17
507.485	0.17
507.837	0.18
508.188	0.18
508.54	0.18
508.891	0.18
509.243	0.17
509.594	0.18
509.945	0.17
510.296	0.17
510.648	0.17
510.999	0.16
511.35	0.17
511.701	0.17
512.052	0.18
512.403	0.17
512.754	0.17
513.105	0.17
513.456	0.16
513.807	0.16
514.157	0.17
514.508	0.17
514.859	0.15
515.209	0.16
515.56	0.16
515.91	0.16
516.261	0.16
516.611	0.16
516.962	0.16
517.312	0.16
517.662	0.16
518.013	0.16
518.363	0.16
518.713	0.16
519.063	0.16
519.413	0.16
519.763	0.16
520.113	0.16
520.463	0.16
520.813	0.16
521.163	0.17
521.512	0.16
521.862	0.16
522.212	0.17
522.562	0.17
522.911	0.16
523.261	0.16
523.61	0.16
523.96	0.17
524.309	0.16
524.658	0.17
525.008	0.16
525.357	0.16
525.706	0.17
526.056	0.16
526.405	0.17
526.754	0.16
527.103	0.16
527.452	0.16
527.801	0.16
528.15	0.17
528.499	0.17
528.847	0.16
529.196	0.17
529.545	0.17
529.893	0.17
530.242	0.17
530.591	0.17
530.939	0.18
531.288	0.17
531.636	0.18
531.985	0.18
532.333	0.17
532.681	0.17
533.029	0.17
533.378	0.18
533.726	0.17
534.074	0.17
534.422	0.16
534.77	0.17
535.118	0.17
535.466	0.17
535.814	0.17
536.162	0.18
536.509	0.18
536.857	0.17
537.205	0.18
537.552	0.18
537.9	0.18
538.248	0.17
538.595	0.18
538.943	0.18
539.29	0.17
539.637	0.17
539.985	0.16
540.332	0.17
540.679	0.17
541.026	0.16
541.373	0.16
541.721	0.16
542.068	0.16
542.415	0.17
542.762	0.16
543.108	0.16
543.455	0.16
543.802	0.16
544.149	0.16
544.496	0.17
544.842	0.16
545.189	0.16
545.535	0.16
545.882	0.16
546.228	0.16
546.575	0.15
546.921	0.15
547.267	0.16
547.614	0.16
547.96	0.17
548.306	0.16
548.652	0.16
548.998	0.17
549.344	0.17
549.69	0.17
550.036	0.17
550.382	0.17
550.728	0.17
551.074	0.17
551.42	0.17
551.765	0.17
552.111	0.18
552.457	0.17
552.802	0.18
553.148	0.17
553.493	0.17
553.839	0.18
554.184	0.17
554.529	0.17
554.875	0.17
555.22	0.17
555.565	0.18
555.91	0.17
556.255	0.18
556.6	0.18
556.945	0.17
557.29	0.17
557.635	0.17
557.98	0.17
558.325	0.18
558.67	0.18
559.014	0.17
559.359	0.18
559.704	0.18
560.048	0.17
560.393	0.17
560.737	0.17
561.082	0.17
561.426	0.16
561.77	0.16
562.115	0.16
562.459	0.17
562.803	0.16
563.147	0.16
563.491	0.17
563.835	0.17
564.179	0.17
564.523	0.16
564.867	0.17
565.211	0.17
565.555	0.17
565.899	0.17
566.242	0.17
566.586	0.16
566.93	0.17
567.273	0.17
567.617	0.17
567.96	0.17
568.304	0.18
568.647	0.16
568.99	0.18
569.334	0.19
569.677	0.18
570.02	0.18
570.363	0.18
570.706	0.17
571.049	0.16
571.392	0.17
571.735	0.17
572.078	0.17
572.421	0.18
572.764	0.18
573.106	0.17
573.449	0.16
573.792	0.17
574.134	0.17
574.477	0.18
574.819	0.17
575.162	0.17
575.504	0.17
575.847	0.17
576.189	0.17
576.531	0.17
576.873	0.17
577.215	0.17
577.558	0.17
577.9	0.17
578.242	0.17
578.584	0.17
578.926	0.17
579.267	0.16
579.609	0.17
579.951	0.17
580.293	0.16
580.634	0.17
580.976	0.17
581.318	0.16
581.659	0.16
582.001	0.17
582.342	0.17
582.683	0.17
583.025	0.16
583.366	0.17
583.707	0.17
584.049	0.17
584.39	0.17
584.731	0.16
585.072	0.16
585.413	0.17
585.754	0.17
586.095	0.17
586.435	0.17
586.776	0.17
587.117	0.17
587.458	0.17
587.798	0.17
588.139	0.17
588.48	0.16
588.82	0.16
589.161	0.17
589.501	0.17
589.841	0.17
590.182	0.17
590.522	0.16
590.862	0.17
591.202	0.17
591.542	0.17
591.882	0.17
592.222	0.16
592.562	0.17
592.902	0.17
593.242	0.17
593.582	0.17
593.922	0.17
594.261	0.17
594.601	0.17
594.941	0.17
595.28	0.17
595.62	0.17
595.959	0.17
596.299	0.16
596.638	0.17
596.977	0.16
597.317	0.16
597.656	0.16
597.995	0.16
598.334	0.17
598.673	0.16
599.012	0.16
599.351	0.17
599.69	0.16
600.029	0.16
600.368	0.16
600.707	0.16
601.046	0.16
601.384	0.17
601.723	0.17
602.061	0.16
602.4	0.16
602.738	0.16
603.077	0.17
603.415	0.16
603.754	0.17
604.092	0.17
604.43	0.16
604.768	0.17
605.107	0.16
605.445	0.16
605.783	0.16
606.121	0.16
606.459	0.16
606.796	0.16
607.134	0.16
607.472	0.15
607.81	0.16
608.148	0.16
608.485	0.16
608.823	0.16
609.16	0.16
609.498	0.16
609.835	0.16
610.173	0.16
610.51	0.17
610.847	0.16
611.185	0.16
611.522	0.17
611.859	0.16
612.196	0.17
612.533	0.17
612.87	0.17
613.207	0.17
613.544	0.17
613.881	0.18
614.217	0.17
614.554	0.17
614.891	0.17
615.228	0.17
615.564	0.17
615.901	0.17
616.237	0.17
616.574	0.17
616.91	0.17
617.246	0.17
617.583	0.17
617.919	0.18
618.255	0.18
618.591	0.17
618.927	0.17
619.263	0.17
619.599	0.18
619.935	0.18
620.271	0.17
620.607	0.17
620.943	0.17
621.279	0.17
621.614	0.17
621.95	0.17
622.286	0.16
622.621	0.16
622.957	0.16
623.292	0.16
623.627	0.15
623.963	0.16
624.298	0.16
624.633	0.16
624.968	0.16
625.304	0.16
625.639	0.15
625.974	0.16
626.309	0.15
626.644	0.15
626.979	0.16
627.313	0.15
627.648	0.15
627.983	0.16
628.318	0.15
628.652	0.15
628.987	0.16
629.321	0.16
629.656	0.15
629.99	0.15
630.325	0.16
630.659	0.16
630.993	0.15
631.327	0.15
631.662	0.15
631.996	0.15
632.33	0.15
632.664	0.15
632.998	0.14
633.332	0.15
633.666	0.15
633.999	0.14
634.333	0.14
634.667	0.14
635.001	0.14
635.334	0.15
635.668	0.14
636.001	0.14
636.335	0.15
636.668	0.14
637.001	0.14
637.335	0.14
637.668	0.14
638.001	0.14
638.334	0.14
638.668	0.13
639.001	0.14
639.334	0.14
639.667	0.14
639.999	0.14
640.332	0.14
640.665	0.14
640.998	0.14
641.331	0.14
641.663	0.13
641.996	0.14
642.328	0.15
642.661	0.14
642.993	0.14
643.326	0.14
643.658	0.14
643.99	0.13
644.323	0.14
644.655	0.14
644.987	0.14
645.319	0.14
645.651	0.14
645.983	0.14
646.315	0.14
646.647	0.14
646.979	0.15
647.31	0.15
647.642	0.15
647.974	0.14
648.305	0.15
648.637	0.14
648.968	0.15
649.3	0.14
649.631	0.15
649.963	0.14
650.294	0.15
650.625	0.15
650.957	0.14
651.288	0.15
651.619	0.15
651.95	0.14
652.281	0.14
652.612	0.14
652.943	0.14
653.274	0.14
653.604	0.14
653.935	0.14
654.266	0.14
654.596	0.13
654.927	0.14
655.258	0.14
655.588	0.14
655.918	0.14
656.249	0.13
656.579	0.13
656.909	0.14
657.24	0.13
657.57	0.14
657.9	0.15
658.23	0.14
658.56	0.14
658.89	0.15
659.22	0.14
659.55	0.14
659.88	0.14
660.209	0.14
660.539	0.15
660.869	0.15
661.198	0.14
661.528	0.14
661.857	0.14
662.187	0.14
662.516	0.14
662.846	0.13
663.175	0.14
663.504	0.13
663.833	0.13
664.163	0.14
664.492	0.13
664.821	0.14
665.15	0.14
665.479	0.13
665.807	0.13
666.136	0.13
666.465	0.13
666.794	0.13
667.122	0.13
667.451	0.13
667.78	0.13
668.108	0.13
668.437	0.13
668.765	0.13
669.093	0.13
669.422	0.13
669.75	0.14
670.078	0.13
670.406	0.14
670.734	0.14
671.062	0.12
671.39	0.13
671.718	0.13
672.046	0.13
672.374	0.12
672.702	0.13
673.029	0.12
673.357	0.12
673.685	0.14
674.012	0.13
674.34	0.12
674.667	0.13
674.995	0.12
675.322	0.12
675.649	0.12
675.977	0.13
676.304	0.12
676.631	0.12
676.958	0.12
677.285	0.12
677.612	0.11
677.939	0.12
678.266	0.12
678.593	0.12
678.92	0.12
679.246	0.11
679.573	0.1
679.9	0.11
680.226	0.11
680.553	0.11
680.879	0.11
681.206	0.12
681.532	0.11
681.858	0.11
682.184	0.11
682.511	0.12
682.837	0.11
683.163	0.11
683.489	0.12
683.815	0.11
684.141	0.11
684.467	0.11
684.793	0.11
685.118	0.11
685.444	0.11
685.77	0.11
686.095	0.11
686.421	0.11
686.746	0.12
687.072	0.12
687.397	0.11
687.723	0.12
688.048	0.12
688.373	0.11
688.698	0.11
689.023	0.12
689.349	0.11
689.674	0.11
689.999	0.11
690.323	0.1
690.648	0.1
690.973	0.1
691.298	0.1
691.623	0.09
691.947	0.1
692.272	0.1
692.596	0.1
692.921	0.1
693.245	0.1
693.57	0.1
693.894	0.1
694.218	0.1
694.543	0.09
694.867	0.09
695.191	0.09
695.515	0.1
695.839	0.1
696.163	0.09
696.487	0.1
696.811	0.09
697.135	0.1
697.458	0.1
697.782	0.1
698.106	0.1
698.429	0.1
698.753	0.09
699.076	0.09
699.4	0.1
699.723	0.1
700.046	0.09
700.37	0.1
700.693	0.1
701.016	0.1
701.339	0.1
701.662	0.1
701.985	0.1
702.308	0.1
702.631	0.09
702.954	0.1
703.277	0.1
703.599	0.09
703.922	0.09
704.245	0.1
704.567	0.09
704.89	0.1
705.212	0.1
705.535	0.09
705.857	0.09
706.179	0.09
706.502	0.09
706.824	0.08
707.146	0.08
707.468	0.09
707.79	0.09
708.112	0.09
708.434	0.1
708.756	0.09
709.078	0.09
709.399	0.09
709.721	0.09
710.043	0.09
710.364	0.09
710.686	0.09
711.007	0.08
711.329	0.09
711.65	0.09
711.972	0.09
712.293	0.09
712.614	0.09
712.935	0.09
713.256	0.09
713.577	0.1
713.898	0.08
714.219	0.09
714.54	0.08
714.861	0.07
715.182	0.08
715.503	0.08
715.823	0.08
716.144	0.07
716.464	0.07
716.785	0.08
717.105	0.08
717.426	0.08
717.746	0.07
718.066	0.07
718.387	0.07
718.707	0.07
719.027	0.07
719.347	0.07
719.667	0.08
719.987	0.07
720.307	0.06
720.627	0.07
720.947	0.07
721.266	0.07
721.586	0.06
721.906	0.07
722.225	0.06
722.545	0.07
722.864	0.07
723.184	0.08
723.503	0.06
