Data from 12-12-AQDScycling_Absorbance__47__00047.txt Node

Date: Tue Dec 12 11:10:08 EST 2023
User: kyuminlee
Spectrometer: FLMS00943
Trigger mode: 0
Integration Time (sec): 1.000000E-1
Scans to average: 1
Electric dark correction enabled: true
Nonlinearity correction enabled: false
Boxcar width: 0
XAxis mode: Wavelengths
Number of Pixels in Spectrum: 2048
>>>>>Begin Spectral Data<<<<<
179.651	-0
180.037	-0
180.424	-0
180.81	-0.41
181.197	-0.03
181.583	0.35
181.97	0.2
182.356	-0
182.743	-0.83
183.129	-0
183.515	-0.03
183.901	-2.19
184.288	-0
184.674	0.56
185.06	-1.13
185.446	-0
185.832	-1.29
186.218	-0
186.604	-0.45
186.99	-0.28
187.376	0.25
187.762	-0
188.148	0.39
188.534	-0.18
188.92	0.07
189.305	0.13
189.691	0.19
190.077	0.14
190.463	0.24
190.848	0.12
191.234	0.15
191.619	0.19
192.005	0.17
192.391	0.07
192.776	0.21
193.161	0.23
193.547	0.22
193.932	0.03
194.318	0.16
194.703	0.26
195.088	0.13
195.473	0.31
195.859	0.26
196.244	0.09
196.629	0.06
197.014	0.2
197.399	0.28
197.784	0.13
198.169	0.19
198.554	0.16
198.939	0.11
199.324	0.13
199.709	0.13
200.094	0.13
200.478	0.09
200.863	0.16
201.248	0.19
201.633	0.25
202.017	0.18
202.402	0.24
202.787	0.1
203.171	0.16
203.556	0.22
203.94	0.09
204.325	0.22
204.709	0.13
205.093	0.21
205.478	0.12
205.862	0.14
206.246	0.06
206.631	0.12
207.015	0.08
207.399	0.13
207.783	0.23
208.167	0.17
208.551	0.19
208.935	0.15
209.319	0.15
209.703	0.09
210.087	0.4
210.471	0.17
210.855	0.17
211.239	0.21
211.623	0.38
212.007	0.27
212.39	0.24
212.774	0.27
213.158	0.12
213.541	0.22
213.925	0.24
214.309	0.35
214.692	0.45
215.076	0.34
215.459	0.08
215.842	0.04
216.226	0.21
216.609	0.5
216.993	0.18
217.376	0.4
217.759	0.2
218.142	0.28
218.525	0.46
218.909	0.34
219.292	0.25
219.675	0.45
220.058	0.44
220.441	0.61
220.824	0.41
221.207	0.65
221.59	0.51
221.973	0.44
222.355	0.55
222.738	0.71
223.121	0.67
223.504	0.47
223.886	0.61
224.269	0.69
224.652	0.64
225.034	0.71
225.417	0.65
225.799	0.86
226.182	0.92
226.564	0.81
226.947	0.67
227.329	0.72
227.711	1
228.094	1.03
228.476	0.9
228.858	0.79
229.24	0.75
229.623	0.9
230.005	0.96
230.387	0.8
230.769	0.86
231.151	0.96
231.533	1.02
231.915	1
232.297	1.22
232.679	1
233.061	1.01
233.442	1.15
233.824	1.14
234.206	1.11
234.588	1.02
234.969	1.14
235.351	1
235.733	1.04
236.114	1.27
236.496	0.98
236.877	1.09
237.259	1.05
237.64	0.97
238.022	1.1
238.403	0.95
238.784	1.08
239.165	0.93
239.547	1.04
239.928	1.28
240.309	0.99
240.69	1.07
241.071	1.02
241.452	1.17
241.834	1.16
242.215	1.13
242.595	0.99
242.976	1.13
243.357	1.11
243.738	1.08
244.119	1.23
244.5	1.2
244.881	1.27
245.261	1.17
245.642	1.07
246.023	1.15
246.403	1.22
246.784	1.26
247.164	1.4
247.545	1.28
247.925	1.14
248.306	1.2
248.686	1.22
249.067	1.27
249.447	1.38
249.827	1.42
250.207	1.63
250.588	1.3
250.968	1.45
251.348	1.37
251.728	1.41
252.108	1.4
252.488	1.37
252.868	1.37
253.248	1.29
253.628	1.29
254.008	1.53
254.388	1.43
254.768	1.36
255.147	1.35
255.527	1.48
255.907	1.34
256.287	1.3
256.666	1.34
257.046	1.64
257.425	1.37
257.805	1.37
258.184	1.35
258.564	1.39
258.943	1.4
259.323	1.44
259.702	1.48
260.081	1.58
260.461	1.48
260.84	1.38
261.219	1.67
261.598	1.46
261.977	1.48
262.356	1.55
262.736	1.44
263.115	1.59
263.494	1.52
263.873	1.48
264.251	1.42
264.63	1.55
265.009	1.51
265.388	1.53
265.767	1.43
266.145	1.43
266.524	1.45
266.903	1.46
267.281	1.36
267.66	1.5
268.039	1.48
268.417	1.37
268.796	1.4
269.174	1.4
269.552	1.34
269.931	1.65
270.309	1.54
270.687	1.46
271.066	1.64
271.444	1.27
271.822	1.62
272.2	1.38
272.578	1.52
272.956	1.4
273.334	1.34
273.712	1.34
274.09	1.39
274.468	1.45
274.846	1.32
275.224	1.38
275.602	1.55
275.98	1.49
276.357	1.46
276.735	1.53
277.113	1.45
277.49	1.33
277.868	1.28
278.246	1.35
278.623	1.35
279.001	1.36
279.378	1.49
279.756	1.49
280.133	1.45
280.51	1.37
280.888	1.48
281.265	1.43
281.642	1.56
282.019	1.38
282.396	1.77
282.773	1.38
283.151	1.6
283.528	1.53
283.905	1.39
284.282	1.61
284.659	1.52
285.035	1.34
285.412	1.36
285.789	1.41
286.166	1.44
286.543	1.59
286.919	1.4
287.296	1.39
287.673	1.69
288.049	1.56
288.426	1.7
288.802	1.44
289.179	1.49
289.555	1.59
289.932	1.33
290.308	1.42
290.684	1.41
291.061	1.41
291.437	1.59
291.813	1.52
292.189	1.32
292.565	1.33
292.942	1.32
293.318	1.37
293.694	1.42
294.07	1.4
294.446	1.45
294.822	1.53
295.197	1.5
295.573	1.43
295.949	1.47
296.325	1.73
296.701	1.62
297.076	1.55
297.452	1.71
297.828	1.39
298.203	1.69
298.579	1.42
298.954	1.46
299.33	1.41
299.705	1.58
300.081	1.54
300.456	1.55
300.831	1.4
301.206	1.47
301.582	1.63
301.957	1.48
302.332	1.6
302.707	1.42
303.082	1.38
303.457	1.47
303.832	1.43
304.207	1.39
304.582	1.55
304.957	1.47
305.332	1.41
305.707	1.43
306.082	1.55
306.456	1.44
306.831	1.34
307.206	1.44
307.58	1.5
307.955	1.33
308.33	1.45
308.704	1.4
309.079	1.35
309.453	1.56
309.828	1.47
310.202	1.3
310.576	1.34
310.951	1.47
311.325	1.41
311.699	1.36
312.073	1.31
312.447	1.37
312.821	1.41
313.196	1.35
313.57	1.33
313.944	1.34
314.317	1.41
314.691	1.36
315.065	1.45
315.439	1.55
315.813	1.34
316.187	1.39
316.56	1.52
316.934	1.44
317.308	1.37
317.681	1.37
318.055	1.43
318.428	1.48
318.802	1.46
319.175	1.4
319.549	1.59
319.922	1.44
320.295	1.34
320.669	1.49
321.042	1.37
321.415	1.68
321.788	1.43
322.162	1.51
322.535	1.46
322.908	1.66
323.281	1.4
323.654	1.57
324.027	1.43
324.4	1.51
324.773	1.48
325.145	1.65
325.518	1.42
325.891	1.4
326.264	1.63
326.636	1.38
327.009	1.39
327.382	1.34
327.754	1.51
328.127	1.37
328.499	1.49
328.872	1.39
329.244	1.67
329.616	1.4
329.989	1.61
330.361	1.47
330.733	1.42
331.106	1.44
331.478	1.52
331.85	1.41
332.222	1.32
332.594	1.49
332.966	1.54
333.338	1.53
333.71	1.74
334.082	1.57
334.454	1.4
334.826	1.51
335.197	1.47
335.569	1.5
335.941	1.41
336.312	1.44
336.684	1.35
337.056	1.58
337.427	1.45
337.799	1.74
338.17	1.57
338.542	1.41
338.913	1.55
339.284	1.54
339.656	1.49
340.027	1.57
340.398	1.44
340.769	1.5
341.141	1.6
341.512	1.51
341.883	1.59
342.254	1.47
342.625	1.55
342.996	1.42
343.367	1.49
343.738	1.42
344.108	1.45
344.479	1.56
344.85	1.41
345.221	1.57
345.591	1.33
345.962	1.46
346.333	1.47
346.703	1.29
347.074	1.24
347.444	1.34
347.815	1.29
348.185	1.44
348.556	1.35
348.926	1.3
349.296	1.37
349.666	1.27
350.037	1.31
350.407	1.29
350.777	1.25
351.147	1.27
351.517	1.42
351.887	1.33
352.257	1.39
352.627	1.27
352.997	1.29
353.367	1.35
353.737	1.41
354.106	1.37
354.476	1.32
354.846	1.35
355.216	1.37
355.585	1.4
355.955	1.42
356.324	1.36
356.694	1.34
357.063	1.33
357.433	1.32
357.802	1.43
358.171	1.45
358.541	1.32
358.91	1.4
359.279	1.37
359.648	1.28
360.017	1.45
360.387	1.28
360.756	1.25
361.125	1.32
361.494	1.38
361.863	1.32
362.231	1.26
362.6	1.36
362.969	1.29
363.338	1.35
363.707	1.38
364.075	1.44
364.444	1.22
364.813	1.28
365.181	1.21
365.55	1.29
365.918	1.34
366.287	1.31
366.655	1.31
367.024	1.33
367.392	1.37
367.76	1.28
368.128	1.27
368.497	1.3
368.865	1.27
369.233	1.29
369.601	1.29
369.969	1.27
370.337	1.29
370.705	1.28
371.073	1.28
371.441	1.32
371.809	1.27
372.177	1.31
372.544	1.36
372.912	1.38
373.28	1.33
373.647	1.33
374.015	1.42
374.383	1.41
374.75	1.42
375.118	1.29
375.485	1.33
375.853	1.46
376.22	1.34
376.587	1.34
376.955	1.42
377.322	1.33
377.689	1.37
378.056	1.32
378.423	1.35
378.79	1.38
379.157	1.41
379.524	1.36
379.891	1.35
380.258	1.43
380.625	1.32
380.992	1.38
381.359	1.39
381.726	1.56
382.092	1.35
382.459	1.47
382.826	1.34
383.192	1.54
383.559	1.34
383.925	1.39
384.292	1.36
384.658	1.61
385.025	1.43
385.391	1.51
385.757	1.47
386.123	1.49
386.49	1.38
386.856	1.52
387.222	1.55
387.588	1.49
387.954	1.48
388.32	1.44
388.686	1.56
389.052	1.44
389.418	1.49
389.784	1.42
390.15	1.57
390.515	1.4
390.881	1.51
391.247	1.4
391.613	1.52
391.978	1.44
392.344	1.58
392.709	1.57
393.075	1.57
393.44	1.51
393.806	1.5
394.171	1.45
394.536	1.42
394.902	1.44
395.267	1.37
395.632	1.32
395.997	1.5
396.362	1.56
396.727	1.53
397.092	1.4
397.457	1.48
397.822	1.44
398.187	1.51
398.552	1.43
398.917	1.5
399.282	1.39
399.646	1.49
400.011	1.55
400.376	1.38
400.74	1.41
401.105	1.42
401.47	1.4
401.834	1.34
402.199	1.39
402.563	1.44
402.927	1.35
403.292	1.43
403.656	1.41
404.02	1.35
404.384	1.46
404.749	1.34
405.113	1.42
405.477	1.29
405.841	1.31
406.205	1.32
406.569	1.32
406.933	1.27
407.296	1.3
407.66	1.41
408.024	1.26
408.388	1.49
408.752	1.35
409.115	1.4
409.479	1.39
409.842	1.22
410.206	1.27
410.569	1.32
410.933	1.26
411.296	1.24
411.66	1.24
412.023	1.15
412.386	1.3
412.749	1.19
413.113	1.21
413.476	1.19
413.839	1.24
414.202	1.26
414.565	1.13
414.928	1.17
415.291	1.14
415.654	1.19
416.017	1.23
416.38	1.17
416.742	1.14
417.105	1.11
417.468	1.17
417.83	1.12
418.193	1.17
418.556	1.14
418.918	1.16
419.281	1.15
419.643	1.16
420.005	1.12
420.368	1.13
420.73	1.09
421.092	1.19
421.455	1.17
421.817	1.08
422.179	1.11
422.541	1.13
422.903	1.16
423.265	1.18
423.627	1.12
423.989	1.06
424.351	1.07
424.713	1.14
425.075	1.11
425.436	1.09
425.798	1.08
426.16	1.09
426.521	1.1
426.883	1.11
427.245	1.09
427.606	1.02
427.967	1
428.329	1.06
428.69	1.11
429.052	1.07
429.413	1.07
429.774	1.05
430.135	1.07
430.497	1.04
430.858	1.07
431.219	1.02
431.58	1.03
431.941	1.05
432.302	1.02
432.663	1.05
433.024	1.09
433.384	1.07
433.745	1.01
434.106	1.06
434.467	1
434.827	1.02
435.188	1.02
435.548	1.02
435.909	0.99
436.269	1.04
436.63	1
436.99	0.95
437.351	0.95
437.711	0.96
438.071	0.93
438.431	0.94
438.792	0.97
439.152	0.96
439.512	0.95
439.872	0.95
440.232	0.96
440.592	0.95
440.952	0.96
441.312	0.93
441.671	0.94
442.031	0.94
442.391	0.92
442.751	0.94
443.11	0.91
443.47	0.88
443.83	0.88
444.189	0.89
444.549	0.88
444.908	0.88
445.267	0.88
445.627	0.89
445.986	0.88
446.345	0.84
446.705	0.88
447.064	0.85
447.423	0.84
447.782	0.85
448.141	0.85
448.5	0.81
448.859	0.81
449.218	0.82
449.577	0.83
449.936	0.83
450.295	0.8
450.653	0.81
451.012	0.79
451.371	0.81
451.729	0.8
452.088	0.79
452.447	0.8
452.805	0.77
453.163	0.77
453.522	0.78
453.88	0.76
454.239	0.77
454.597	0.74
454.955	0.73
455.313	0.74
455.671	0.75
456.029	0.72
456.388	0.71
456.746	0.71
457.104	0.7
457.461	0.68
457.819	0.69
458.177	0.67
458.535	0.68
458.893	0.67
459.25	0.67
459.608	0.65
459.966	0.64
460.323	0.64
460.681	0.62
461.038	0.63
461.396	0.61
461.753	0.6
462.111	0.59
462.468	0.59
462.825	0.58
463.182	0.58
463.54	0.58
463.897	0.58
464.254	0.56
464.611	0.55
464.968	0.55
465.325	0.56
465.682	0.53
466.039	0.53
466.395	0.52
466.752	0.51
467.109	0.51
467.466	0.5
467.822	0.51
468.179	0.49
468.535	0.49
468.892	0.48
469.248	0.48
469.605	0.47
469.961	0.47
470.318	0.48
470.674	0.47
471.03	0.45
471.386	0.45
471.743	0.44
472.099	0.43
472.455	0.42
472.811	0.41
473.167	0.42
473.523	0.4
473.879	0.41
474.235	0.4
474.59	0.39
474.946	0.38
475.302	0.39
475.657	0.38
476.013	0.38
476.369	0.36
476.724	0.36
477.08	0.37
477.435	0.36
477.791	0.36
478.146	0.35
478.501	0.35
478.857	0.34
479.212	0.34
479.567	0.33
479.922	0.32
480.277	0.32
480.632	0.31
480.987	0.32
481.342	0.31
481.697	0.3
482.052	0.3
482.407	0.29
482.762	0.29
483.116	0.29
483.471	0.28
483.826	0.28
484.18	0.28
484.535	0.27
484.89	0.27
485.244	0.27
485.598	0.27
485.953	0.27
486.307	0.26
486.661	0.27
487.016	0.26
487.37	0.26
487.724	0.25
488.078	0.25
488.432	0.24
488.786	0.24
489.14	0.24
489.494	0.24
489.848	0.24
490.202	0.23
490.556	0.23
490.91	0.23
491.263	0.23
491.617	0.22
491.971	0.23
492.324	0.22
492.678	0.22
493.031	0.22
493.385	0.21
493.738	0.21
494.091	0.21
494.445	0.21
494.798	0.21
495.151	0.21
495.504	0.21
495.857	0.2
496.21	0.21
496.564	0.2
496.916	0.2
497.269	0.19
497.622	0.2
497.975	0.2
498.328	0.2
498.681	0.2
499.033	0.19
499.386	0.19
499.739	0.19
500.091	0.19
500.444	0.19
500.796	0.19
501.149	0.19
501.501	0.19
501.854	0.19
502.206	0.19
502.558	0.19
502.91	0.18
503.263	0.18
503.615	0.18
503.967	0.17
504.319	0.18
504.671	0.17
505.023	0.18
505.375	0.17
505.726	0.17
506.078	0.17
506.43	0.16
506.782	0.17
507.133	0.18
507.485	0.17
507.837	0.18
508.188	0.18
508.54	0.18
508.891	0.17
509.243	0.17
509.594	0.18
509.945	0.17
510.296	0.16
510.648	0.17
510.999	0.16
511.35	0.17
511.701	0.17
512.052	0.17
512.403	0.17
512.754	0.16
513.105	0.16
513.456	0.16
513.807	0.15
514.157	0.16
514.508	0.16
514.859	0.16
515.209	0.16
515.56	0.16
515.91	0.16
516.261	0.17
516.611	0.15
516.962	0.16
517.312	0.16
517.662	0.16
518.013	0.16
518.363	0.17
518.713	0.16
519.063	0.16
519.413	0.16
519.763	0.16
520.113	0.16
520.463	0.16
520.813	0.16
521.163	0.16
521.512	0.16
521.862	0.16
522.212	0.16
522.562	0.16
522.911	0.16
523.261	0.16
523.61	0.16
523.96	0.16
524.309	0.16
524.658	0.16
525.008	0.16
525.357	0.16
525.706	0.17
526.056	0.16
526.405	0.16
526.754	0.17
527.103	0.16
527.452	0.16
527.801	0.16
528.15	0.16
528.499	0.16
528.847	0.16
529.196	0.17
529.545	0.17
529.893	0.16
530.242	0.16
530.591	0.17
530.939	0.17
531.288	0.16
531.636	0.17
531.985	0.16
532.333	0.16
532.681	0.16
533.029	0.16
533.378	0.16
533.726	0.16
534.074	0.16
534.422	0.16
534.77	0.17
535.118	0.16
535.466	0.17
535.814	0.16
536.162	0.16
536.509	0.18
536.857	0.17
537.205	0.17
537.552	0.17
537.9	0.17
538.248	0.16
538.595	0.16
538.943	0.16
539.29	0.16
539.637	0.16
539.985	0.16
540.332	0.16
540.679	0.16
541.026	0.16
541.373	0.16
541.721	0.15
542.068	0.16
542.415	0.16
542.762	0.16
543.108	0.16
543.455	0.15
543.802	0.16
544.149	0.16
544.496	0.16
544.842	0.16
545.189	0.16
545.535	0.16
545.882	0.16
546.228	0.16
546.575	0.16
546.921	0.16
547.267	0.16
547.614	0.16
547.96	0.16
548.306	0.16
548.652	0.16
548.998	0.17
549.344	0.16
549.69	0.17
550.036	0.16
550.382	0.16
550.728	0.16
551.074	0.17
551.42	0.16
551.765	0.16
552.111	0.16
552.457	0.17
552.802	0.16
553.148	0.16
553.493	0.16
553.839	0.16
554.184	0.17
554.529	0.16
554.875	0.17
555.22	0.17
555.565	0.18
555.91	0.17
556.255	0.18
556.6	0.17
556.945	0.16
557.29	0.17
557.635	0.17
557.98	0.17
558.325	0.16
558.67	0.16
559.014	0.16
559.359	0.16
559.704	0.17
560.048	0.15
560.393	0.16
560.737	0.16
561.082	0.16
561.426	0.16
561.77	0.16
562.115	0.16
562.459	0.16
562.803	0.16
563.147	0.16
563.491	0.16
563.835	0.16
564.179	0.16
564.523	0.17
564.867	0.16
565.211	0.16
565.555	0.16
565.899	0.17
566.242	0.16
566.586	0.15
566.93	0.17
567.273	0.17
567.617	0.17
567.96	0.16
568.304	0.17
568.647	0.16
568.99	0.16
569.334	0.17
569.677	0.16
570.02	0.17
570.363	0.17
570.706	0.16
571.049	0.17
571.392	0.18
571.735	0.17
572.078	0.17
572.421	0.18
572.764	0.17
573.106	0.17
573.449	0.17
573.792	0.17
574.134	0.17
574.477	0.17
574.819	0.17
575.162	0.16
575.504	0.16
575.847	0.16
576.189	0.17
576.531	0.17
576.873	0.17
577.215	0.17
577.558	0.18
577.9	0.16
578.242	0.16
578.584	0.17
578.926	0.16
579.267	0.17
579.609	0.16
579.951	0.16
580.293	0.16
580.634	0.17
580.976	0.17
581.318	0.16
581.659	0.15
582.001	0.16
582.342	0.16
582.683	0.17
583.025	0.17
583.366	0.16
583.707	0.16
584.049	0.17
584.39	0.17
584.731	0.16
585.072	0.15
585.413	0.16
585.754	0.15
586.095	0.17
586.435	0.16
586.776	0.17
587.117	0.16
587.458	0.16
587.798	0.16
588.139	0.16
588.48	0.16
588.82	0.15
589.161	0.16
589.501	0.15
589.841	0.15
590.182	0.15
590.522	0.15
590.862	0.16
591.202	0.16
591.542	0.15
591.882	0.16
592.222	0.15
592.562	0.15
592.902	0.15
593.242	0.15
593.582	0.16
593.922	0.16
594.261	0.16
594.601	0.16
594.941	0.16
595.28	0.16
595.62	0.16
595.959	0.16
596.299	0.15
596.638	0.16
596.977	0.16
597.317	0.16
597.656	0.16
597.995	0.16
598.334	0.16
598.673	0.16
599.012	0.15
599.351	0.17
599.69	0.16
600.029	0.16
600.368	0.16
600.707	0.16
601.046	0.16
601.384	0.16
601.723	0.17
602.061	0.16
602.4	0.16
602.738	0.16
603.077	0.16
603.415	0.15
603.754	0.16
604.092	0.16
604.43	0.15
604.768	0.17
605.107	0.17
605.445	0.16
605.783	0.16
606.121	0.15
606.459	0.16
606.796	0.16
607.134	0.16
607.472	0.16
607.81	0.16
608.148	0.16
608.485	0.17
608.823	0.16
609.16	0.16
609.498	0.16
609.835	0.16
610.173	0.15
610.51	0.17
610.847	0.16
611.185	0.16
611.522	0.17
611.859	0.16
612.196	0.17
612.533	0.16
612.87	0.17
613.207	0.18
613.544	0.17
613.881	0.17
614.217	0.17
614.554	0.16
614.891	0.17
615.228	0.17
615.564	0.16
615.901	0.16
616.237	0.17
616.574	0.16
616.91	0.17
617.246	0.16
617.583	0.16
617.919	0.17
618.255	0.16
618.591	0.16
618.927	0.17
619.263	0.17
619.599	0.17
619.935	0.16
620.271	0.16
620.607	0.16
620.943	0.16
621.279	0.16
621.614	0.15
621.95	0.16
622.286	0.15
622.621	0.16
622.957	0.16
623.292	0.16
623.627	0.16
623.963	0.15
624.298	0.16
624.633	0.15
624.968	0.15
625.304	0.16
625.639	0.15
625.974	0.16
626.309	0.15
626.644	0.15
626.979	0.16
627.313	0.16
627.648	0.16
627.983	0.16
628.318	0.15
628.652	0.15
628.987	0.15
629.321	0.16
629.656	0.15
629.99	0.15
630.325	0.15
630.659	0.15
630.993	0.15
631.327	0.15
631.662	0.14
631.996	0.15
632.33	0.15
632.664	0.14
632.998	0.14
633.332	0.14
633.666	0.15
633.999	0.14
634.333	0.14
634.667	0.14
635.001	0.13
635.334	0.14
635.668	0.13
636.001	0.14
636.335	0.14
636.668	0.14
637.001	0.13
637.335	0.13
637.668	0.14
638.001	0.13
638.334	0.14
638.668	0.13
639.001	0.14
639.334	0.13
639.667	0.14
639.999	0.14
640.332	0.14
640.665	0.13
640.998	0.13
641.331	0.14
641.663	0.14
641.996	0.14
642.328	0.14
642.661	0.14
642.993	0.14
643.326	0.14
643.658	0.13
643.99	0.13
644.323	0.13
644.655	0.14
644.987	0.14
645.319	0.14
645.651	0.14
645.983	0.13
646.315	0.13
646.647	0.14
646.979	0.15
647.31	0.14
647.642	0.14
647.974	0.14
648.305	0.15
648.637	0.15
648.968	0.15
649.3	0.14
649.631	0.14
649.963	0.14
650.294	0.15
650.625	0.14
650.957	0.14
651.288	0.14
651.619	0.14
651.95	0.14
652.281	0.14
652.612	0.13
652.943	0.14
653.274	0.14
653.604	0.14
653.935	0.13
654.266	0.14
654.596	0.13
654.927	0.13
655.258	0.14
655.588	0.14
655.918	0.14
656.249	0.12
656.579	0.13
656.909	0.13
657.24	0.13
657.57	0.13
657.9	0.14
658.23	0.13
658.56	0.14
658.89	0.14
659.22	0.14
659.55	0.13
659.88	0.14
660.209	0.13
660.539	0.14
660.869	0.14
661.198	0.14
661.528	0.13
661.857	0.13
662.187	0.13
662.516	0.14
662.846	0.13
663.175	0.13
663.504	0.13
663.833	0.12
664.163	0.13
664.492	0.13
664.821	0.13
665.15	0.13
665.479	0.13
665.807	0.13
666.136	0.13
666.465	0.12
666.794	0.13
667.122	0.13
667.451	0.12
667.78	0.13
668.108	0.13
668.437	0.12
668.765	0.13
669.093	0.13
669.422	0.12
669.75	0.13
670.078	0.12
670.406	0.13
670.734	0.13
671.062	0.13
671.39	0.12
671.718	0.12
672.046	0.12
672.374	0.12
672.702	0.12
673.029	0.12
673.357	0.13
673.685	0.12
674.012	0.12
674.34	0.13
674.667	0.13
674.995	0.13
675.322	0.12
675.649	0.12
675.977	0.12
676.304	0.12
676.631	0.12
676.958	0.11
677.285	0.11
677.612	0.11
677.939	0.11
678.266	0.11
678.593	0.11
678.92	0.11
679.246	0.11
679.573	0.11
679.9	0.11
680.226	0.11
680.553	0.11
680.879	0.11
681.206	0.11
681.532	0.11
681.858	0.11
682.184	0.1
682.511	0.11
682.837	0.1
683.163	0.1
683.489	0.1
683.815	0.1
684.141	0.11
684.467	0.1
684.793	0.11
685.118	0.1
685.444	0.1
685.77	0.1
686.095	0.11
686.421	0.11
686.746	0.11
687.072	0.11
687.397	0.1
687.723	0.11
688.048	0.11
688.373	0.1
688.698	0.1
689.023	0.1
689.349	0.1
689.674	0.1
689.999	0.1
690.323	0.09
690.648	0.09
690.973	0.09
691.298	0.09
691.623	0.09
691.947	0.09
692.272	0.09
692.596	0.09
692.921	0.09
693.245	0.09
693.57	0.1
693.894	0.09
694.218	0.1
694.543	0.09
694.867	0.09
695.191	0.08
695.515	0.09
695.839	0.09
696.163	0.09
696.487	0.08
696.811	0.08
697.135	0.09
697.458	0.09
697.782	0.09
698.106	0.1
698.429	0.1
698.753	0.09
699.076	0.1
699.4	0.1
699.723	0.1
700.046	0.09
700.37	0.09
700.693	0.09
701.016	0.09
701.339	0.09
701.662	0.1
701.985	0.1
702.308	0.09
702.631	0.09
702.954	0.1
703.277	0.1
703.599	0.09
703.922	0.08
704.245	0.09
704.567	0.08
704.89	0.09
705.212	0.08
705.535	0.08
705.857	0.08
706.179	0.08
706.502	0.08
706.824	0.08
707.146	0.07
707.468	0.08
707.79	0.08
708.112	0.08
708.434	0.08
708.756	0.08
709.078	0.08
709.399	0.08
709.721	0.07
710.043	0.08
710.364	0.08
710.686	0.08
711.007	0.07
711.329	0.08
711.65	0.08
711.972	0.08
712.293	0.08
712.614	0.08
712.935	0.08
713.256	0.08
713.577	0.08
713.898	0.08
714.219	0.08
714.54	0.08
714.861	0.07
715.182	0.08
715.503	0.07
715.823	0.08
716.144	0.07
716.464	0.08
716.785	0.07
717.105	0.08
717.426	0.08
717.746	0.07
718.066	0.07
718.387	0.07
718.707	0.07
719.027	0.07
719.347	0.06
719.667	0.07
719.987	0.06
720.307	0.06
720.627	0.06
720.947	0.07
721.266	0.07
721.586	0.06
721.906	0.07
722.225	0.06
722.545	0.07
722.864	0.07
723.184	0.07
723.503	0.06
