Data from 12-12-AQDScycling_Absorbance__416__00416.txt Node

Date: Tue Dec 12 12:40:44 EST 2023
User: kyuminlee
Spectrometer: FLMS00943
Trigger mode: 0
Integration Time (sec): 1.000000E-1
Scans to average: 1
Electric dark correction enabled: true
Nonlinearity correction enabled: false
Boxcar width: 0
XAxis mode: Wavelengths
Number of Pixels in Spectrum: 2048
>>>>>Begin Spectral Data<<<<<
179.651	-0.28
180.037	-0.28
180.424	-0.28
180.81	-0.35
181.197	0.23
181.583	0.32
181.97	-0.22
182.356	-0
182.743	-0
183.129	0.34
183.515	0.65
183.901	-0
184.288	0.74
184.674	-0.12
185.06	-0
185.446	-0.34
185.832	-0
186.218	0.01
186.604	0.25
186.99	-0
187.376	0.33
187.762	-0
188.148	0.55
188.534	-0.06
188.92	0.11
189.305	0.08
189.691	0.28
190.077	0.19
190.463	0.29
190.848	0.18
191.234	0.14
191.619	0.15
192.005	0.15
192.391	0.16
192.776	0.35
193.161	0.27
193.547	0.19
193.932	0.05
194.318	0.11
194.703	0.32
195.088	0.82
195.473	0.21
195.859	0.28
196.244	0.16
196.629	0.24
197.014	0.28
197.399	0.24
197.784	0.09
198.169	0.13
198.554	0.27
198.939	0.17
199.324	0.11
199.709	0.12
200.094	0.18
200.478	0.2
200.863	0.18
201.248	0.34
201.633	0.21
202.017	0.31
202.402	0.34
202.787	0.15
203.171	0.26
203.556	0.47
203.94	0.21
204.325	0.41
204.709	0.13
205.093	0.18
205.478	0.15
205.862	0.1
206.246	0.36
206.631	0.15
207.015	0.08
207.399	0.23
207.783	0.14
208.167	0.11
208.551	0.38
208.935	0.25
209.319	0.22
209.703	0.2
210.087	0.28
210.471	0.02
210.855	0.26
211.239	0.42
211.623	0.22
212.007	0.29
212.39	0.47
212.774	0.21
213.158	0.12
213.541	0.32
213.925	0.34
214.309	0.3
214.692	0.39
215.076	0.2
215.459	0.21
215.842	0.21
216.226	0.23
216.609	0.31
216.993	0.24
217.376	0.44
217.759	0.23
218.142	0.29
218.525	0.88
218.909	0.4
219.292	0.41
219.675	0.58
220.058	0.59
220.441	0.59
220.824	0.68
221.207	0.67
221.59	0.52
221.973	0.58
222.355	0.81
222.738	0.7
223.121	0.69
223.504	0.55
223.886	0.66
224.269	0.89
224.652	0.57
225.034	0.77
225.417	0.74
225.799	0.74
226.182	0.84
226.564	0.78
226.947	0.74
227.329	0.75
227.711	0.95
228.094	0.93
228.476	0.94
228.858	0.73
229.24	0.9
229.623	1.08
230.005	0.89
230.387	0.9
230.769	0.96
231.151	1.04
231.533	0.99
231.915	0.98
232.297	1.02
232.679	0.99
233.061	1.22
233.442	0.98
233.824	1.2
234.206	1.1
234.588	1.1
234.969	1.12
235.351	1.11
235.733	1.11
236.114	1.43
236.496	1.19
236.877	1.11
237.259	0.99
237.64	1.21
238.022	0.93
238.403	1.03
238.784	1.18
239.165	1.05
239.547	1.19
239.928	1.09
240.309	1.08
240.69	1.13
241.071	1.13
241.452	1.25
241.834	1.06
242.215	1.18
242.595	1.15
242.976	1.21
243.357	1.14
243.738	1.04
244.119	1.2
244.5	1.21
244.881	1.35
245.261	1.29
245.642	1.18
246.023	1.22
246.403	1.22
246.784	1.33
247.164	1.29
247.545	1.46
247.925	1.51
248.306	1.3
248.686	1.44
249.067	1.33
249.447	1.36
249.827	1.44
250.207	1.51
250.588	1.33
250.968	1.7
251.348	1.31
251.728	1.5
252.108	1.43
252.488	1.44
252.868	1.37
253.248	1.3
253.628	1.45
254.008	1.41
254.388	1.3
254.768	1.37
255.147	1.45
255.527	1.45
255.907	1.51
256.287	1.4
256.666	1.46
257.046	1.45
257.425	1.6
257.805	1.38
258.184	1.36
258.564	1.37
258.943	1.53
259.323	1.52
259.702	1.63
260.081	1.66
260.461	1.46
260.84	1.4
261.219	1.71
261.598	1.6
261.977	1.53
262.356	1.45
262.736	1.46
263.115	1.6
263.494	1.4
263.873	1.47
264.251	1.54
264.63	1.51
265.009	1.67
265.388	1.45
265.767	1.54
266.145	1.54
266.524	1.66
266.903	1.51
267.281	1.68
267.66	1.56
268.039	1.61
268.417	1.43
268.796	1.47
269.174	1.62
269.552	1.48
269.931	1.97
270.309	1.4
270.687	1.75
271.066	1.56
271.444	1.45
271.822	1.66
272.2	1.53
272.578	1.56
272.956	1.49
273.334	1.47
273.712	1.39
274.09	1.58
274.468	1.55
274.846	1.38
275.224	1.46
275.602	1.56
275.98	1.99
276.357	1.55
276.735	1.39
277.113	1.61
277.49	1.4
277.868	1.36
278.246	1.43
278.623	1.39
279.001	1.35
279.378	1.38
279.756	1.61
280.133	1.57
280.51	1.58
280.888	1.47
281.265	1.46
281.642	1.75
282.019	1.6
282.396	1.59
282.773	1.53
283.151	1.73
283.528	1.68
283.905	1.51
284.282	1.5
284.659	1.6
285.035	1.45
285.412	1.37
285.789	1.56
286.166	1.43
286.543	1.39
286.919	1.69
287.296	1.36
287.673	1.81
288.049	1.67
288.426	1.59
288.802	1.85
289.179	1.48
289.555	1.63
289.932	1.68
290.308	1.38
290.684	1.42
291.061	1.37
291.437	1.71
291.813	1.48
292.189	1.3
292.565	1.38
292.942	1.35
293.318	1.44
293.694	1.51
294.07	1.37
294.446	1.39
294.822	2.08
295.197	1.51
295.573	1.65
295.949	1.79
296.325	1.62
296.701	1.65
297.076	1.73
297.452	1.66
297.828	1.61
298.203	1.92
298.579	1.32
298.954	1.64
299.33	1.5
299.705	1.57
300.081	1.56
300.456	1.62
300.831	1.47
301.206	1.44
301.582	1.59
301.957	1.48
302.332	1.59
302.707	1.44
303.082	1.34
303.457	1.62
303.832	1.47
304.207	1.54
304.582	1.38
304.957	1.45
305.332	1.45
305.707	1.49
306.082	1.45
306.456	1.65
306.831	1.42
307.206	1.52
307.58	1.53
307.955	1.38
308.33	1.44
308.704	1.44
309.079	1.33
309.453	1.61
309.828	1.47
310.202	1.35
310.576	1.37
310.951	1.44
311.325	1.39
311.699	1.48
312.073	1.36
312.447	1.3
312.821	1.44
313.196	1.44
313.57	1.3
313.944	1.36
314.317	1.29
314.691	1.48
315.065	1.48
315.439	1.47
315.813	1.41
316.187	1.43
316.56	1.48
316.934	1.42
317.308	1.42
317.681	1.43
318.055	1.38
318.428	1.48
318.802	1.49
319.175	1.41
319.549	1.44
319.922	1.37
320.295	1.35
320.669	1.57
321.042	1.44
321.415	1.48
321.788	1.39
322.162	1.38
322.535	1.51
322.908	1.61
323.281	1.45
323.654	1.55
324.027	1.57
324.4	1.42
324.773	1.47
325.145	1.39
325.518	1.37
325.891	1.44
326.264	1.47
326.636	1.33
327.009	1.51
327.382	1.46
327.754	1.55
328.127	1.32
328.499	1.59
328.872	1.57
329.244	1.44
329.616	1.43
329.989	1.37
330.361	1.47
330.733	1.4
331.106	1.41
331.478	1.53
331.85	1.42
332.222	1.38
332.594	1.48
332.966	1.4
333.338	1.52
333.71	1.43
334.082	1.53
334.454	1.47
334.826	1.48
335.197	1.63
335.569	1.39
335.941	1.42
336.312	1.54
336.684	1.45
337.056	1.44
337.427	1.62
337.799	1.49
338.17	1.42
338.542	1.46
338.913	1.47
339.284	1.55
339.656	1.45
340.027	1.56
340.398	1.52
340.769	1.51
341.141	1.63
341.512	1.53
341.883	1.58
342.254	1.43
342.625	1.54
342.996	1.46
343.367	1.43
343.738	1.5
344.108	1.44
344.479	1.58
344.85	1.39
345.221	1.64
345.591	1.5
345.962	1.53
346.333	1.63
346.703	1.31
347.074	1.37
347.444	1.37
347.815	1.31
348.185	1.31
348.556	1.33
348.926	1.35
349.296	1.37
349.666	1.3
350.037	1.34
350.407	1.24
350.777	1.32
351.147	1.42
351.517	1.36
351.887	1.29
352.257	1.44
352.627	1.31
352.997	1.24
353.367	1.32
353.737	1.46
354.106	1.33
354.476	1.34
354.846	1.5
355.216	1.32
355.585	1.46
355.955	1.39
356.324	1.55
356.694	1.35
357.063	1.39
357.433	1.35
357.802	1.41
358.171	1.46
358.541	1.36
358.91	1.46
359.279	1.47
359.648	1.34
360.017	1.41
360.387	1.47
360.756	1.34
361.125	1.4
361.494	1.43
361.863	1.41
362.231	1.35
362.6	1.32
362.969	1.4
363.338	1.31
363.707	1.45
364.075	1.43
364.444	1.42
364.813	1.41
365.181	1.44
365.55	1.35
365.918	1.56
366.287	1.41
366.655	1.48
367.024	1.46
367.392	1.41
367.76	1.33
368.128	1.49
368.497	1.4
368.865	1.5
369.233	1.39
369.601	1.42
369.969	1.39
370.337	1.39
370.705	1.35
371.073	1.37
371.441	1.35
371.809	1.47
372.177	1.47
372.544	1.59
372.912	1.48
373.28	1.48
373.647	1.65
374.015	1.63
374.383	1.63
374.75	1.7
375.118	1.45
375.485	1.52
375.853	1.47
376.22	1.44
376.587	1.54
376.955	1.54
377.322	1.46
377.689	1.65
378.056	1.44
378.423	1.41
378.79	1.48
379.157	1.47
379.524	1.59
379.891	1.53
380.258	1.56
380.625	1.52
380.992	1.41
381.359	1.71
381.726	1.63
382.092	1.45
382.459	1.55
382.826	1.71
383.192	1.53
383.559	1.51
383.925	1.67
384.292	1.53
384.658	1.67
385.025	1.59
385.391	1.62
385.757	1.65
386.123	1.55
386.49	1.52
386.856	1.78
387.222	1.55
387.588	1.62
387.954	1.77
388.32	1.65
388.686	1.72
389.052	1.5
389.418	1.83
389.784	1.5
390.15	1.69
390.515	1.44
390.881	1.81
391.247	1.53
391.613	1.73
391.978	1.43
392.344	1.7
392.709	1.75
393.075	1.65
393.44	1.66
393.806	1.66
394.171	1.54
394.536	1.64
394.902	1.52
395.267	1.49
395.632	1.5
395.997	1.61
396.362	1.55
396.727	1.47
397.092	1.51
397.457	1.63
397.822	1.49
398.187	1.62
398.552	1.55
398.917	1.67
399.282	1.55
399.646	1.49
400.011	1.63
400.376	1.43
400.74	1.47
401.105	1.55
401.47	1.59
401.834	1.58
402.199	1.54
402.563	1.5
402.927	1.51
403.292	1.54
403.656	1.63
404.02	1.53
404.384	1.53
404.749	1.48
405.113	1.55
405.477	1.57
405.841	1.64
406.205	1.48
406.569	1.44
406.933	1.42
407.296	1.53
407.66	1.38
408.024	1.41
408.388	1.44
408.752	1.42
409.115	1.44
409.479	1.41
409.842	1.44
410.206	1.34
410.569	1.34
410.933	1.32
411.296	1.3
411.66	1.35
412.023	1.35
412.386	1.37
412.749	1.31
413.113	1.37
413.476	1.34
413.839	1.3
414.202	1.38
414.565	1.35
414.928	1.29
415.291	1.25
415.654	1.2
416.017	1.28
416.38	1.3
416.742	1.29
417.105	1.25
417.468	1.25
417.83	1.32
418.193	1.42
418.556	1.32
418.918	1.22
419.281	1.34
419.643	1.38
420.005	1.24
420.368	1.28
420.73	1.25
421.092	1.3
421.455	1.25
421.817	1.25
422.179	1.25
422.541	1.28
422.903	1.27
423.265	1.32
423.627	1.25
423.989	1.22
424.351	1.26
424.713	1.24
425.075	1.28
425.436	1.23
425.798	1.22
426.16	1.27
426.521	1.22
426.883	1.25
427.245	1.28
427.606	1.21
427.967	1.21
428.329	1.21
428.69	1.27
429.052	1.19
429.413	1.26
429.774	1.22
430.135	1.21
430.497	1.21
430.858	1.19
431.219	1.18
431.58	1.17
431.941	1.2
432.302	1.16
432.663	1.17
433.024	1.15
433.384	1.17
433.745	1.13
434.106	1.21
434.467	1.16
434.827	1.16
435.188	1.16
435.548	1.24
435.909	1.14
436.269	1.21
436.63	1.11
436.99	1.1
437.351	1.07
437.711	1.1
438.071	1.08
438.431	1.08
438.792	1.1
439.152	1.1
439.512	1.1
439.872	1.05
440.232	1.08
440.592	1.07
440.952	1.08
441.312	1.04
441.671	1.04
442.031	1.04
442.391	1.03
442.751	1.05
443.11	1.05
443.47	1.01
443.83	1.04
444.189	1.02
444.549	1.02
444.908	0.96
445.267	1
445.627	1.01
445.986	0.98
446.345	0.95
446.705	0.97
447.064	0.96
447.423	0.98
447.782	0.95
448.141	0.95
448.5	0.93
448.859	0.93
449.218	0.91
449.577	0.93
449.936	0.91
450.295	0.93
450.653	0.91
451.012	0.9
451.371	0.91
451.729	0.88
452.088	0.89
452.447	0.86
452.805	0.9
453.163	0.87
453.522	0.88
453.88	0.85
454.239	0.85
454.597	0.83
454.955	0.81
455.313	0.81
455.671	0.82
456.029	0.81
456.388	0.78
456.746	0.79
457.104	0.77
457.461	0.75
457.819	0.76
458.177	0.75
458.535	0.74
458.893	0.74
459.25	0.74
459.608	0.73
459.966	0.71
460.323	0.71
460.681	0.69
461.038	0.68
461.396	0.68
461.753	0.67
462.111	0.67
462.468	0.65
462.825	0.64
463.182	0.64
463.54	0.63
463.897	0.62
464.254	0.63
464.611	0.61
464.968	0.61
465.325	0.61
465.682	0.58
466.039	0.58
466.395	0.57
466.752	0.57
467.109	0.57
467.466	0.55
467.822	0.55
468.179	0.52
468.535	0.53
468.892	0.52
469.248	0.52
469.605	0.51
469.961	0.51
470.318	0.52
470.674	0.51
471.03	0.49
471.386	0.48
471.743	0.47
472.099	0.47
472.455	0.47
472.811	0.46
473.167	0.45
473.523	0.44
473.879	0.43
474.235	0.44
474.59	0.43
474.946	0.4
475.302	0.42
475.657	0.4
476.013	0.4
476.369	0.39
476.724	0.39
477.08	0.39
477.435	0.38
477.791	0.38
478.146	0.38
478.501	0.37
478.857	0.36
479.212	0.35
479.567	0.36
479.922	0.34
480.277	0.33
480.632	0.33
480.987	0.33
481.342	0.33
481.697	0.32
482.052	0.31
482.407	0.31
482.762	0.3
483.116	0.3
483.471	0.29
483.826	0.29
484.18	0.29
484.535	0.29
484.89	0.28
485.244	0.28
485.598	0.29
485.953	0.28
486.307	0.27
486.661	0.27
487.016	0.27
487.37	0.27
487.724	0.26
488.078	0.26
488.432	0.26
488.786	0.25
489.14	0.25
489.494	0.24
489.848	0.24
490.202	0.23
490.556	0.24
490.91	0.23
491.263	0.23
491.617	0.23
491.971	0.23
492.324	0.23
492.678	0.22
493.031	0.23
493.385	0.22
493.738	0.22
494.091	0.22
494.445	0.22
494.798	0.21
495.151	0.21
495.504	0.21
495.857	0.21
496.21	0.21
496.564	0.2
496.916	0.2
497.269	0.2
497.622	0.2
497.975	0.2
498.328	0.2
498.681	0.2
499.033	0.2
499.386	0.2
499.739	0.19
500.091	0.18
500.444	0.19
500.796	0.19
501.149	0.18
501.501	0.2
501.854	0.19
502.206	0.19
502.558	0.19
502.91	0.19
503.263	0.18
503.615	0.19
503.967	0.19
504.319	0.18
504.671	0.18
505.023	0.17
505.375	0.18
505.726	0.17
506.078	0.18
506.43	0.17
506.782	0.17
507.133	0.17
507.485	0.18
507.837	0.18
508.188	0.17
508.54	0.18
508.891	0.19
509.243	0.17
509.594	0.17
509.945	0.17
510.296	0.16
510.648	0.16
510.999	0.17
511.35	0.17
511.701	0.17
512.052	0.18
512.403	0.17
512.754	0.16
513.105	0.16
513.456	0.16
513.807	0.17
514.157	0.17
514.508	0.17
514.859	0.16
515.209	0.17
515.56	0.17
515.91	0.16
516.261	0.17
516.611	0.16
516.962	0.17
517.312	0.17
517.662	0.17
518.013	0.17
518.363	0.17
518.713	0.17
519.063	0.17
519.413	0.17
519.763	0.17
520.113	0.16
520.463	0.17
520.813	0.17
521.163	0.17
521.512	0.17
521.862	0.16
522.212	0.17
522.562	0.17
522.911	0.17
523.261	0.17
523.61	0.17
523.96	0.16
524.309	0.17
524.658	0.17
525.008	0.17
525.357	0.17
525.706	0.17
526.056	0.17
526.405	0.17
526.754	0.17
527.103	0.17
527.452	0.17
527.801	0.17
528.15	0.17
528.499	0.17
528.847	0.18
529.196	0.18
529.545	0.17
529.893	0.18
530.242	0.17
530.591	0.17
530.939	0.18
531.288	0.18
531.636	0.18
531.985	0.17
532.333	0.17
532.681	0.18
533.029	0.18
533.378	0.18
533.726	0.18
534.074	0.18
534.422	0.17
534.77	0.18
535.118	0.18
535.466	0.18
535.814	0.17
536.162	0.18
536.509	0.19
536.857	0.17
537.205	0.18
537.552	0.18
537.9	0.18
538.248	0.17
538.595	0.18
538.943	0.17
539.29	0.18
539.637	0.18
539.985	0.18
540.332	0.18
540.679	0.18
541.026	0.17
541.373	0.18
541.721	0.18
542.068	0.17
542.415	0.18
542.762	0.17
543.108	0.16
543.455	0.16
543.802	0.17
544.149	0.16
544.496	0.17
544.842	0.17
545.189	0.17
545.535	0.16
545.882	0.17
546.228	0.16
546.575	0.17
546.921	0.16
547.267	0.17
547.614	0.17
547.96	0.17
548.306	0.16
548.652	0.17
548.998	0.17
549.344	0.17
549.69	0.17
550.036	0.17
550.382	0.17
550.728	0.16
551.074	0.18
551.42	0.17
551.765	0.18
552.111	0.17
552.457	0.18
552.802	0.17
553.148	0.17
553.493	0.18
553.839	0.18
554.184	0.18
554.529	0.17
554.875	0.18
555.22	0.19
555.565	0.17
555.91	0.18
556.255	0.18
556.6	0.18
556.945	0.17
557.29	0.18
557.635	0.18
557.98	0.17
558.325	0.18
558.67	0.19
559.014	0.18
559.359	0.19
559.704	0.18
560.048	0.17
560.393	0.18
560.737	0.17
561.082	0.18
561.426	0.17
561.77	0.18
562.115	0.18
562.459	0.17
562.803	0.18
563.147	0.17
563.491	0.18
563.835	0.18
564.179	0.18
564.523	0.18
564.867	0.18
565.211	0.18
565.555	0.18
565.899	0.19
566.242	0.17
566.586	0.18
566.93	0.18
567.273	0.18
567.617	0.19
567.96	0.19
568.304	0.19
568.647	0.18
568.99	0.19
569.334	0.19
569.677	0.19
570.02	0.19
570.363	0.18
570.706	0.18
571.049	0.19
571.392	0.18
571.735	0.18
572.078	0.18
572.421	0.18
572.764	0.18
573.106	0.18
573.449	0.18
573.792	0.18
574.134	0.18
574.477	0.18
574.819	0.17
575.162	0.18
575.504	0.18
575.847	0.18
576.189	0.18
576.531	0.19
576.873	0.18
577.215	0.18
577.558	0.18
577.9	0.18
578.242	0.18
578.584	0.18
578.926	0.18
579.267	0.18
579.609	0.18
579.951	0.18
580.293	0.19
580.634	0.19
580.976	0.19
581.318	0.19
581.659	0.19
582.001	0.18
582.342	0.18
582.683	0.19
583.025	0.17
583.366	0.18
583.707	0.18
584.049	0.18
584.39	0.18
584.731	0.18
585.072	0.18
585.413	0.19
585.754	0.18
586.095	0.18
586.435	0.18
586.776	0.18
587.117	0.18
587.458	0.17
587.798	0.18
588.139	0.18
588.48	0.17
588.82	0.17
589.161	0.18
589.501	0.18
589.841	0.18
590.182	0.17
590.522	0.18
590.862	0.18
591.202	0.18
591.542	0.18
591.882	0.17
592.222	0.17
592.562	0.17
592.902	0.18
593.242	0.17
593.582	0.18
593.922	0.17
594.261	0.18
594.601	0.18
594.941	0.17
595.28	0.18
595.62	0.17
595.959	0.17
596.299	0.18
596.638	0.18
596.977	0.17
597.317	0.19
597.656	0.18
597.995	0.18
598.334	0.18
598.673	0.18
599.012	0.18
599.351	0.18
599.69	0.18
600.029	0.18
600.368	0.18
600.707	0.18
601.046	0.18
601.384	0.19
601.723	0.18
602.061	0.18
602.4	0.18
602.738	0.17
603.077	0.18
603.415	0.16
603.754	0.18
604.092	0.17
604.43	0.16
604.768	0.18
605.107	0.18
605.445	0.17
605.783	0.16
606.121	0.17
606.459	0.17
606.796	0.17
607.134	0.17
607.472	0.17
607.81	0.17
608.148	0.17
608.485	0.18
608.823	0.18
609.16	0.17
609.498	0.17
609.835	0.17
610.173	0.17
610.51	0.17
610.847	0.17
611.185	0.18
611.522	0.17
611.859	0.18
612.196	0.18
612.533	0.18
612.87	0.19
613.207	0.18
613.544	0.18
613.881	0.18
614.217	0.18
614.554	0.18
614.891	0.18
615.228	0.18
615.564	0.18
615.901	0.18
616.237	0.18
616.574	0.19
616.91	0.19
617.246	0.18
617.583	0.18
617.919	0.18
618.255	0.19
618.591	0.18
618.927	0.18
619.263	0.18
619.599	0.19
619.935	0.19
620.271	0.18
620.607	0.18
620.943	0.18
621.279	0.18
621.614	0.18
621.95	0.18
622.286	0.18
622.621	0.17
622.957	0.18
623.292	0.17
623.627	0.17
623.963	0.16
624.298	0.17
624.633	0.16
624.968	0.17
625.304	0.16
625.639	0.16
625.974	0.17
626.309	0.16
626.644	0.17
626.979	0.17
627.313	0.16
627.648	0.16
627.983	0.17
628.318	0.16
628.652	0.16
628.987	0.17
629.321	0.17
629.656	0.15
629.99	0.16
630.325	0.16
630.659	0.16
630.993	0.15
631.327	0.16
631.662	0.16
631.996	0.16
632.33	0.16
632.664	0.16
632.998	0.15
633.332	0.16
633.666	0.15
633.999	0.16
634.333	0.15
634.667	0.16
635.001	0.15
635.334	0.15
635.668	0.15
636.001	0.15
636.335	0.16
636.668	0.16
637.001	0.15
637.335	0.15
637.668	0.16
638.001	0.15
638.334	0.16
638.668	0.15
639.001	0.15
639.334	0.15
639.667	0.15
639.999	0.15
640.332	0.15
640.665	0.14
640.998	0.15
641.331	0.15
641.663	0.15
641.996	0.14
642.328	0.15
642.661	0.15
642.993	0.15
643.326	0.15
643.658	0.14
643.99	0.14
644.323	0.14
644.655	0.14
644.987	0.15
645.319	0.14
645.651	0.15
645.983	0.14
646.315	0.14
646.647	0.15
646.979	0.15
647.31	0.15
647.642	0.14
647.974	0.14
648.305	0.15
648.637	0.14
648.968	0.15
649.3	0.15
649.631	0.15
649.963	0.14
650.294	0.14
650.625	0.14
650.957	0.15
651.288	0.15
651.619	0.15
651.95	0.15
652.281	0.15
652.612	0.15
652.943	0.15
653.274	0.15
653.604	0.15
653.935	0.14
654.266	0.15
654.596	0.15
654.927	0.14
655.258	0.15
655.588	0.15
655.918	0.14
656.249	0.12
656.579	0.14
656.909	0.14
657.24	0.14
657.57	0.15
657.9	0.15
658.23	0.14
658.56	0.14
658.89	0.15
659.22	0.14
659.55	0.15
659.88	0.15
660.209	0.15
660.539	0.16
660.869	0.15
661.198	0.15
661.528	0.15
661.857	0.15
662.187	0.15
662.516	0.15
662.846	0.14
663.175	0.15
663.504	0.14
663.833	0.14
664.163	0.14
664.492	0.14
664.821	0.14
665.15	0.14
665.479	0.14
665.807	0.14
666.136	0.14
666.465	0.14
666.794	0.14
667.122	0.14
667.451	0.14
667.78	0.14
668.108	0.13
668.437	0.13
668.765	0.14
669.093	0.13
669.422	0.13
669.75	0.14
670.078	0.13
670.406	0.14
670.734	0.14
671.062	0.13
671.39	0.13
671.718	0.14
672.046	0.13
672.374	0.13
672.702	0.13
673.029	0.13
673.357	0.14
673.685	0.14
674.012	0.13
674.34	0.13
674.667	0.13
674.995	0.13
675.322	0.13
675.649	0.13
675.977	0.13
676.304	0.13
676.631	0.13
676.958	0.13
677.285	0.13
677.612	0.13
677.939	0.13
678.266	0.13
678.593	0.13
678.92	0.13
679.246	0.13
679.573	0.13
679.9	0.13
680.226	0.13
680.553	0.13
680.879	0.13
681.206	0.13
681.532	0.13
681.858	0.13
682.184	0.13
682.511	0.13
682.837	0.13
683.163	0.12
683.489	0.12
683.815	0.12
684.141	0.12
684.467	0.12
684.793	0.12
685.118	0.12
685.444	0.12
685.77	0.12
686.095	0.12
686.421	0.13
686.746	0.12
687.072	0.12
687.397	0.12
687.723	0.13
688.048	0.13
688.373	0.12
688.698	0.12
689.023	0.13
689.349	0.12
689.674	0.13
689.999	0.12
690.323	0.11
690.648	0.11
690.973	0.12
691.298	0.11
691.623	0.12
691.947	0.12
692.272	0.11
692.596	0.12
692.921	0.12
693.245	0.11
693.57	0.12
693.894	0.12
694.218	0.12
694.543	0.11
694.867	0.12
695.191	0.11
695.515	0.12
695.839	0.11
696.163	0.11
696.487	0.11
696.811	0.11
697.135	0.12
697.458	0.12
697.782	0.11
698.106	0.12
698.429	0.11
698.753	0.1
699.076	0.11
699.4	0.11
699.723	0.11
700.046	0.11
700.37	0.12
700.693	0.11
701.016	0.11
701.339	0.11
701.662	0.12
701.985	0.12
702.308	0.11
702.631	0.11
702.954	0.11
703.277	0.11
703.599	0.11
703.922	0.11
704.245	0.1
704.567	0.1
704.89	0.1
705.212	0.11
705.535	0.1
705.857	0.1
706.179	0.1
706.502	0.1
706.824	0.09
707.146	0.1
707.468	0.1
707.79	0.1
708.112	0.09
708.434	0.1
708.756	0.1
709.078	0.1
709.399	0.09
709.721	0.1
710.043	0.1
710.364	0.1
710.686	0.1
711.007	0.1
711.329	0.11
711.65	0.1
711.972	0.1
712.293	0.1
712.614	0.11
712.935	0.1
713.256	0.1
713.577	0.11
713.898	0.1
714.219	0.09
714.54	0.09
714.861	0.09
715.182	0.09
715.503	0.09
715.823	0.09
716.144	0.09
716.464	0.09
716.785	0.09
717.105	0.09
717.426	0.1
717.746	0.09
718.066	0.08
718.387	0.08
718.707	0.08
719.027	0.09
719.347	0.07
719.667	0.08
719.987	0.08
720.307	0.08
720.627	0.08
720.947	0.08
721.266	0.09
721.586	0.08
721.906	0.09
722.225	0.08
722.545	0.08
722.864	0.08
723.184	0.09
