Data from 12-12-AQDScycling_Absorbance__516__00516.txt Node

Date: Tue Dec 12 13:05:44 EST 2023
User: kyuminlee
Spectrometer: FLMS00943
Trigger mode: 0
Integration Time (sec): 1.000000E-1
Scans to average: 1
Electric dark correction enabled: true
Nonlinearity correction enabled: false
Boxcar width: 0
XAxis mode: Wavelengths
Number of Pixels in Spectrum: 2048
>>>>>Begin Spectral Data<<<<<
179.651	-0
180.037	-0
180.424	-0
180.81	-0.44
181.197	0.01
181.583	-0
181.97	-0.04
182.356	-0
182.743	-0
183.129	1.24
183.515	1.28
183.901	-2.25
184.288	0.25
184.674	-0
185.06	-0
185.446	-0
185.832	-0
186.218	0.63
186.604	-0
186.99	-0
187.376	-0
187.762	0.87
188.148	0.42
188.534	-0.27
188.92	0.03
189.305	0.17
189.691	0.24
190.077	0.25
190.463	0.1
190.848	0.13
191.234	0.01
191.619	0.06
192.005	0.16
192.391	0.25
192.776	0.14
193.161	0.34
193.547	0.19
193.932	-0.05
194.318	0.03
194.703	0.1
195.088	0.25
195.473	0.16
195.859	0.2
196.244	0.12
196.629	0.02
197.014	0.46
197.399	0.1
197.784	0.15
198.169	0.19
198.554	0.21
198.939	0.18
199.324	0.16
199.709	0.09
200.094	0.16
200.478	0.05
200.863	0.21
201.248	0.52
201.633	0.19
202.017	0.06
202.402	0.29
202.787	0.06
203.171	0.17
203.556	0.09
203.94	0.06
204.325	0.24
204.709	0.16
205.093	0.08
205.478	0.13
205.862	0.03
206.246	0.18
206.631	-0.03
207.015	0.16
207.399	0.13
207.783	0.15
208.167	0.18
208.551	0.21
208.935	0.31
209.319	0.09
209.703	0.11
210.087	0.23
210.471	0.01
210.855	0.22
211.239	0.3
211.623	0.22
212.007	0.21
212.39	0.35
212.774	0.07
213.158	0.07
213.541	0.07
213.925	0.18
214.309	0.2
214.692	0.21
215.076	0.21
215.459	0.13
215.842	0.14
216.226	0.23
216.609	0.25
216.993	0.25
217.376	0.43
217.759	0.2
218.142	0.26
218.525	0.54
218.909	0.36
219.292	0.41
219.675	0.35
220.058	0.35
220.441	0.54
220.824	0.35
221.207	0.51
221.59	0.46
221.973	0.51
222.355	0.62
222.738	0.72
223.121	0.59
223.504	0.65
223.886	0.63
224.269	0.7
224.652	0.69
225.034	0.79
225.417	0.65
225.799	0.9
226.182	0.89
226.564	0.83
226.947	0.81
227.329	0.94
227.711	1.01
228.094	1.3
228.476	0.76
228.858	0.82
229.24	0.84
229.623	0.96
230.005	0.82
230.387	0.92
230.769	0.88
231.151	1.07
231.533	0.91
231.915	0.96
232.297	0.99
232.679	1.02
233.061	0.94
233.442	1.08
233.824	1.15
234.206	1.25
234.588	0.97
234.969	0.99
235.351	1.09
235.733	0.98
236.114	1.18
236.496	1.06
236.877	1.14
237.259	1.06
237.64	1.06
238.022	0.96
238.403	1.04
238.784	0.96
239.165	1.02
239.547	1.07
239.928	1.02
240.309	1.06
240.69	1.06
241.071	1.08
241.452	1.22
241.834	1.11
242.215	1.11
242.595	1.03
242.976	1.19
243.357	1.16
243.738	1.01
244.119	1.39
244.5	1
244.881	1.31
245.261	1.23
245.642	1.23
246.023	1.22
246.403	1.15
246.784	1.23
247.164	1.18
247.545	1.34
247.925	1.22
248.306	1.16
248.686	1.31
249.067	1.23
249.447	1.42
249.827	1.46
250.207	1.42
250.588	1.26
250.968	1.57
251.348	1.27
251.728	1.68
252.108	1.37
252.488	1.43
252.868	1.47
253.248	1.33
253.628	1.29
254.008	1.48
254.388	1.38
254.768	1.26
255.147	1.44
255.527	1.33
255.907	1.28
256.287	1.38
256.666	1.37
257.046	1.51
257.425	1.43
257.805	1.3
258.184	1.47
258.564	1.46
258.943	1.48
259.323	1.55
259.702	1.55
260.081	1.48
260.461	1.55
260.84	1.44
261.219	1.51
261.598	1.52
261.977	1.36
262.356	1.45
262.736	1.47
263.115	1.44
263.494	1.41
263.873	1.47
264.251	1.5
264.63	1.54
265.009	1.54
265.388	1.41
265.767	1.35
266.145	1.36
266.524	1.48
266.903	1.43
267.281	1.39
267.66	1.54
268.039	1.47
268.417	1.2
268.796	1.54
269.174	1.45
269.552	1.61
269.931	1.5
270.309	1.32
270.687	1.6
271.066	1.54
271.444	1.34
271.822	1.5
272.2	1.55
272.578	1.39
272.956	1.34
273.334	1.32
273.712	1.42
274.09	1.46
274.468	1.4
274.846	1.43
275.224	1.32
275.602	1.57
275.98	1.46
276.357	1.53
276.735	1.46
277.113	1.32
277.49	1.32
277.868	1.3
278.246	1.47
278.623	1.31
279.001	1.32
279.378	1.44
279.756	1.42
280.133	1.54
280.51	1.42
280.888	1.47
281.265	1.41
281.642	1.47
282.019	1.5
282.396	1.67
282.773	1.52
283.151	1.53
283.528	1.55
283.905	1.44
284.282	1.6
284.659	1.56
285.035	1.38
285.412	1.31
285.789	1.36
286.166	1.39
286.543	1.43
286.919	1.55
287.296	1.41
287.673	1.91
288.049	1.61
288.426	1.63
288.802	1.49
289.179	1.43
289.555	1.66
289.932	1.48
290.308	1.32
290.684	1.43
291.061	1.33
291.437	1.45
291.813	1.4
292.189	1.36
292.565	1.26
292.942	1.26
293.318	1.51
293.694	1.44
294.07	1.5
294.446	1.34
294.822	1.85
295.197	1.48
295.573	1.41
295.949	1.53
296.325	1.55
296.701	1.59
297.076	1.48
297.452	1.54
297.828	1.43
298.203	1.5
298.579	1.47
298.954	1.49
299.33	1.45
299.705	1.4
300.081	1.62
300.456	1.44
300.831	1.4
301.206	1.44
301.582	1.51
301.957	1.48
302.332	1.6
302.707	1.35
303.082	1.54
303.457	1.39
303.832	1.39
304.207	1.47
304.582	1.39
304.957	1.45
305.332	1.51
305.707	1.45
306.082	1.51
306.456	1.54
306.831	1.35
307.206	1.45
307.58	1.59
307.955	1.38
308.33	1.4
308.704	1.47
309.079	1.36
309.453	1.63
309.828	1.53
310.202	1.41
310.576	1.39
310.951	1.44
311.325	1.5
311.699	1.4
312.073	1.33
312.447	1.42
312.821	1.39
313.196	1.36
313.57	1.38
313.944	1.41
314.317	1.35
314.691	1.41
315.065	1.53
315.439	1.47
315.813	1.44
316.187	1.42
316.56	1.64
316.934	1.53
317.308	1.42
317.681	1.41
318.055	1.45
318.428	1.42
318.802	1.45
319.175	1.45
319.549	1.45
319.922	1.33
320.295	1.35
320.669	1.49
321.042	1.48
321.415	1.55
321.788	1.47
322.162	1.45
322.535	1.46
322.908	1.47
323.281	1.45
323.654	1.51
324.027	1.38
324.4	1.41
324.773	1.44
325.145	1.5
325.518	1.41
325.891	1.45
326.264	1.53
326.636	1.46
327.009	1.44
327.382	1.43
327.754	1.59
328.127	1.41
328.499	1.43
328.872	1.47
329.244	1.46
329.616	1.42
329.989	1.47
330.361	1.49
330.733	1.39
331.106	1.39
331.478	1.54
331.85	1.35
332.222	1.42
332.594	1.54
332.966	1.53
333.338	1.73
333.71	1.52
334.082	1.7
334.454	1.46
334.826	1.57
335.197	1.52
335.569	1.5
335.941	1.38
336.312	1.54
336.684	1.51
337.056	1.43
337.427	1.56
337.799	1.59
338.17	1.55
338.542	1.37
338.913	1.56
339.284	1.5
339.656	1.55
340.027	1.44
340.398	1.51
340.769	1.51
341.141	1.62
341.512	1.45
341.883	1.48
342.254	1.52
342.625	1.48
342.996	1.57
343.367	1.4
343.738	1.49
344.108	1.36
344.479	1.5
344.85	1.4
345.221	1.75
345.591	1.36
345.962	1.38
346.333	1.39
346.703	1.4
347.074	1.43
347.444	1.31
347.815	1.38
348.185	1.36
348.556	1.23
348.926	1.36
349.296	1.35
349.666	1.38
350.037	1.28
350.407	1.26
350.777	1.24
351.147	1.33
351.517	1.42
351.887	1.24
352.257	1.34
352.627	1.27
352.997	1.33
353.367	1.47
353.737	1.37
354.106	1.36
354.476	1.4
354.846	1.3
355.216	1.37
355.585	1.38
355.955	1.34
356.324	1.43
356.694	1.5
357.063	1.27
357.433	1.28
357.802	1.3
358.171	1.34
358.541	1.37
358.91	1.3
359.279	1.35
359.648	1.33
360.017	1.26
360.387	1.3
360.756	1.29
361.125	1.32
361.494	1.34
361.863	1.33
362.231	1.36
362.6	1.39
362.969	1.38
363.338	1.28
363.707	1.38
364.075	1.36
364.444	1.21
364.813	1.29
365.181	1.36
365.55	1.32
365.918	1.35
366.287	1.29
366.655	1.38
367.024	1.34
367.392	1.41
367.76	1.33
368.128	1.32
368.497	1.3
368.865	1.32
369.233	1.23
369.601	1.33
369.969	1.25
370.337	1.4
370.705	1.34
371.073	1.31
371.441	1.36
371.809	1.25
372.177	1.29
372.544	1.27
372.912	1.38
373.28	1.37
373.647	1.35
374.015	1.41
374.383	1.42
374.75	1.44
375.118	1.39
375.485	1.36
375.853	1.44
376.22	1.33
376.587	1.38
376.955	1.44
377.322	1.42
377.689	1.34
378.056	1.47
378.423	1.3
378.79	1.38
379.157	1.39
379.524	1.43
379.891	1.44
380.258	1.41
380.625	1.4
380.992	1.43
381.359	1.39
381.726	1.57
382.092	1.38
382.459	1.42
382.826	1.43
383.192	1.39
383.559	1.39
383.925	1.5
384.292	1.56
384.658	1.52
385.025	1.4
385.391	1.59
385.757	1.51
386.123	1.54
386.49	1.46
386.856	1.5
387.222	1.61
387.588	1.65
387.954	1.53
388.32	1.53
388.686	1.56
389.052	1.5
389.418	1.48
389.784	1.45
390.15	1.61
390.515	1.34
390.881	1.65
391.247	1.41
391.613	1.49
391.978	1.41
392.344	1.52
392.709	1.56
393.075	1.59
393.44	1.55
393.806	1.77
394.171	1.45
394.536	1.47
394.902	1.48
395.267	1.47
395.632	1.48
395.997	1.4
396.362	1.46
396.727	1.64
397.092	1.58
397.457	1.39
397.822	1.43
398.187	1.56
398.552	1.43
398.917	1.53
399.282	1.45
399.646	1.48
400.011	1.54
400.376	1.42
400.74	1.44
401.105	1.39
401.47	1.49
401.834	1.49
402.199	1.35
402.563	1.43
402.927	1.36
403.292	1.41
403.656	1.47
404.02	1.38
404.384	1.48
404.749	1.42
405.113	1.42
405.477	1.5
405.841	1.41
406.205	1.38
406.569	1.3
406.933	1.25
407.296	1.35
407.66	1.36
408.024	1.38
408.388	1.37
408.752	1.3
409.115	1.41
409.479	1.4
409.842	1.32
410.206	1.22
410.569	1.2
410.933	1.32
411.296	1.2
411.66	1.3
412.023	1.22
412.386	1.29
412.749	1.3
413.113	1.2
413.476	1.21
413.839	1.24
414.202	1.25
414.565	1.16
414.928	1.14
415.291	1.3
415.654	1.18
416.017	1.26
416.38	1.18
416.742	1.15
417.105	1.14
417.468	1.16
417.83	1.23
418.193	1.26
418.556	1.12
418.918	1.16
419.281	1.13
419.643	1.25
420.005	1.2
420.368	1.18
420.73	1.15
421.092	1.19
421.455	1.17
421.817	1.07
422.179	1.12
422.541	1.17
422.903	1.21
423.265	1.13
423.627	1.15
423.989	1.17
424.351	1.08
424.713	1.11
425.075	1.13
425.436	1.1
425.798	1.09
426.16	1.17
426.521	1.17
426.883	1.14
427.245	1.1
427.606	1.04
427.967	1.05
428.329	1.11
428.69	1.13
429.052	1.1
429.413	1.09
429.774	1.11
430.135	1.12
430.497	1.09
430.858	1.08
431.219	1.1
431.58	1.06
431.941	1.06
432.302	1.04
432.663	1.06
433.024	1.08
433.384	1.09
433.745	1.02
434.106	1.04
434.467	1.05
434.827	1.05
435.188	1.04
435.548	1.11
435.909	1.05
436.269	1.08
436.63	1.03
436.99	1.04
437.351	0.98
437.711	1.01
438.071	0.98
438.431	1
438.792	1
439.152	1.03
439.512	0.97
439.872	1.01
440.232	1.01
440.592	0.97
440.952	0.94
441.312	0.95
441.671	0.96
442.031	0.97
442.391	0.97
442.751	0.93
443.11	0.93
443.47	0.91
443.83	0.91
444.189	0.9
444.549	0.89
444.908	0.91
445.267	0.91
445.627	0.91
445.986	0.9
446.345	0.88
446.705	0.88
447.064	0.86
447.423	0.86
447.782	0.88
448.141	0.87
448.5	0.85
448.859	0.83
449.218	0.84
449.577	0.83
449.936	0.86
450.295	0.83
450.653	0.84
451.012	0.83
451.371	0.81
451.729	0.82
452.088	0.83
452.447	0.8
452.805	0.81
453.163	0.8
453.522	0.8
453.88	0.79
454.239	0.79
454.597	0.77
454.955	0.77
455.313	0.75
455.671	0.75
456.029	0.73
456.388	0.74
456.746	0.73
457.104	0.73
457.461	0.7
457.819	0.69
458.177	0.7
458.535	0.69
458.893	0.69
459.25	0.67
459.608	0.68
459.966	0.66
460.323	0.65
460.681	0.64
461.038	0.64
461.396	0.63
461.753	0.63
462.111	0.61
462.468	0.6
462.825	0.61
463.182	0.6
463.54	0.58
463.897	0.6
464.254	0.57
464.611	0.58
464.968	0.56
465.325	0.57
465.682	0.56
466.039	0.55
466.395	0.54
466.752	0.54
467.109	0.53
467.466	0.52
467.822	0.52
468.179	0.51
468.535	0.49
468.892	0.5
469.248	0.48
469.605	0.49
469.961	0.48
470.318	0.49
470.674	0.47
471.03	0.47
471.386	0.46
471.743	0.45
472.099	0.45
472.455	0.43
472.811	0.43
473.167	0.43
473.523	0.42
473.879	0.42
474.235	0.42
474.59	0.41
474.946	0.4
475.302	0.41
475.657	0.39
476.013	0.38
476.369	0.37
476.724	0.38
477.08	0.37
477.435	0.36
477.791	0.36
478.146	0.37
478.501	0.35
478.857	0.35
479.212	0.36
479.567	0.35
479.922	0.33
480.277	0.33
480.632	0.33
480.987	0.33
481.342	0.32
481.697	0.31
482.052	0.31
482.407	0.31
482.762	0.29
483.116	0.3
483.471	0.3
483.826	0.29
484.18	0.29
484.535	0.28
484.89	0.28
485.244	0.28
485.598	0.27
485.953	0.27
486.307	0.27
486.661	0.28
487.016	0.26
487.37	0.26
487.724	0.26
488.078	0.26
488.432	0.26
488.786	0.25
489.14	0.25
489.494	0.24
489.848	0.24
490.202	0.24
490.556	0.23
490.91	0.23
491.263	0.23
491.617	0.23
491.971	0.23
492.324	0.22
492.678	0.23
493.031	0.23
493.385	0.22
493.738	0.22
494.091	0.22
494.445	0.22
494.798	0.22
495.151	0.21
495.504	0.21
495.857	0.22
496.21	0.21
496.564	0.21
496.916	0.21
497.269	0.2
497.622	0.21
497.975	0.2
498.328	0.2
498.681	0.2
499.033	0.2
499.386	0.2
499.739	0.19
500.091	0.19
500.444	0.19
500.796	0.19
501.149	0.19
501.501	0.19
501.854	0.19
502.206	0.19
502.558	0.19
502.91	0.19
503.263	0.18
503.615	0.18
503.967	0.19
504.319	0.18
504.671	0.18
505.023	0.18
505.375	0.18
505.726	0.18
506.078	0.18
506.43	0.18
506.782	0.18
507.133	0.19
507.485	0.17
507.837	0.18
508.188	0.18
508.54	0.17
508.891	0.18
509.243	0.18
509.594	0.17
509.945	0.17
510.296	0.17
510.648	0.18
510.999	0.17
511.35	0.17
511.701	0.17
512.052	0.18
512.403	0.18
512.754	0.17
513.105	0.17
513.456	0.17
513.807	0.17
514.157	0.18
514.508	0.17
514.859	0.16
515.209	0.17
515.56	0.18
515.91	0.17
516.261	0.18
516.611	0.17
516.962	0.16
517.312	0.17
517.662	0.17
518.013	0.17
518.363	0.17
518.713	0.18
519.063	0.17
519.413	0.17
519.763	0.17
520.113	0.17
520.463	0.18
520.813	0.18
521.163	0.18
521.512	0.17
521.862	0.17
522.212	0.18
522.562	0.18
522.911	0.17
523.261	0.17
523.61	0.17
523.96	0.17
524.309	0.18
524.658	0.17
525.008	0.17
525.357	0.17
525.706	0.17
526.056	0.17
526.405	0.17
526.754	0.17
527.103	0.16
527.452	0.18
527.801	0.17
528.15	0.18
528.499	0.18
528.847	0.17
529.196	0.18
529.545	0.18
529.893	0.18
530.242	0.18
530.591	0.18
530.939	0.19
531.288	0.19
531.636	0.19
531.985	0.18
532.333	0.19
532.681	0.18
533.029	0.18
533.378	0.18
533.726	0.19
534.074	0.19
534.422	0.18
534.77	0.19
535.118	0.18
535.466	0.18
535.814	0.18
536.162	0.18
536.509	0.18
536.857	0.19
537.205	0.18
537.552	0.18
537.9	0.18
538.248	0.18
538.595	0.18
538.943	0.19
539.29	0.18
539.637	0.19
539.985	0.18
540.332	0.18
540.679	0.18
541.026	0.18
541.373	0.18
541.721	0.17
542.068	0.18
542.415	0.18
542.762	0.17
543.108	0.17
543.455	0.17
543.802	0.18
544.149	0.17
544.496	0.18
544.842	0.17
545.189	0.17
545.535	0.17
545.882	0.18
546.228	0.17
546.575	0.16
546.921	0.17
547.267	0.17
547.614	0.17
547.96	0.17
548.306	0.18
548.652	0.17
548.998	0.18
549.344	0.17
549.69	0.18
550.036	0.18
550.382	0.17
550.728	0.18
551.074	0.19
551.42	0.18
551.765	0.18
552.111	0.18
552.457	0.19
552.802	0.18
553.148	0.17
553.493	0.18
553.839	0.18
554.184	0.18
554.529	0.17
554.875	0.18
555.22	0.18
555.565	0.18
555.91	0.18
556.255	0.19
556.6	0.19
556.945	0.19
557.29	0.18
557.635	0.18
557.98	0.18
558.325	0.18
558.67	0.18
559.014	0.19
559.359	0.19
559.704	0.18
560.048	0.18
560.393	0.19
560.737	0.17
561.082	0.19
561.426	0.18
561.77	0.18
562.115	0.18
562.459	0.18
562.803	0.18
563.147	0.18
563.491	0.19
563.835	0.19
564.179	0.18
564.523	0.18
564.867	0.18
565.211	0.19
565.555	0.19
565.899	0.19
566.242	0.18
566.586	0.18
566.93	0.18
567.273	0.19
567.617	0.19
567.96	0.19
568.304	0.19
568.647	0.19
568.99	0.19
569.334	0.19
569.677	0.19
570.02	0.19
570.363	0.19
570.706	0.18
571.049	0.19
571.392	0.19
571.735	0.18
572.078	0.18
572.421	0.19
572.764	0.19
573.106	0.19
573.449	0.18
573.792	0.18
574.134	0.18
574.477	0.19
574.819	0.19
575.162	0.18
575.504	0.19
575.847	0.19
576.189	0.19
576.531	0.19
576.873	0.18
577.215	0.18
577.558	0.2
577.9	0.19
578.242	0.19
578.584	0.18
578.926	0.18
579.267	0.18
579.609	0.19
579.951	0.19
580.293	0.18
580.634	0.19
580.976	0.19
581.318	0.18
581.659	0.18
582.001	0.18
582.342	0.18
582.683	0.19
583.025	0.18
583.366	0.17
583.707	0.18
584.049	0.17
584.39	0.18
584.731	0.18
585.072	0.18
585.413	0.19
585.754	0.19
586.095	0.18
586.435	0.19
586.776	0.18
587.117	0.18
587.458	0.18
587.798	0.18
588.139	0.18
588.48	0.18
588.82	0.18
589.161	0.17
589.501	0.18
589.841	0.18
590.182	0.18
590.522	0.18
590.862	0.18
591.202	0.18
591.542	0.18
591.882	0.18
592.222	0.18
592.562	0.18
592.902	0.18
593.242	0.18
593.582	0.18
593.922	0.18
594.261	0.17
594.601	0.17
594.941	0.17
595.28	0.18
595.62	0.18
595.959	0.18
596.299	0.18
596.638	0.18
596.977	0.18
597.317	0.19
597.656	0.18
597.995	0.18
598.334	0.18
598.673	0.18
599.012	0.18
599.351	0.19
599.69	0.18
600.029	0.18
600.368	0.18
600.707	0.18
601.046	0.18
601.384	0.19
601.723	0.19
602.061	0.17
602.4	0.19
602.738	0.19
603.077	0.18
603.415	0.18
603.754	0.18
604.092	0.18
604.43	0.18
604.768	0.18
605.107	0.18
605.445	0.17
605.783	0.17
606.121	0.17
606.459	0.18
606.796	0.18
607.134	0.18
607.472	0.17
607.81	0.18
608.148	0.18
608.485	0.18
608.823	0.18
609.16	0.17
609.498	0.18
609.835	0.17
610.173	0.18
610.51	0.18
610.847	0.17
611.185	0.18
611.522	0.18
611.859	0.18
612.196	0.18
612.533	0.19
612.87	0.19
613.207	0.19
613.544	0.19
613.881	0.19
614.217	0.18
614.554	0.19
614.891	0.18
615.228	0.18
615.564	0.18
615.901	0.18
616.237	0.19
616.574	0.18
616.91	0.19
617.246	0.18
617.583	0.18
617.919	0.19
618.255	0.19
618.591	0.18
618.927	0.19
619.263	0.19
619.599	0.19
619.935	0.18
620.271	0.19
620.607	0.18
620.943	0.18
621.279	0.18
621.614	0.18
621.95	0.18
622.286	0.18
622.621	0.17
622.957	0.18
623.292	0.18
623.627	0.17
623.963	0.18
624.298	0.17
624.633	0.18
624.968	0.17
625.304	0.17
625.639	0.17
625.974	0.17
626.309	0.17
626.644	0.18
626.979	0.18
627.313	0.18
627.648	0.17
627.983	0.17
628.318	0.17
628.652	0.16
628.987	0.16
629.321	0.17
629.656	0.16
629.99	0.16
630.325	0.16
630.659	0.16
630.993	0.16
631.327	0.16
631.662	0.15
631.996	0.16
632.33	0.16
632.664	0.16
632.998	0.16
633.332	0.16
633.666	0.16
633.999	0.17
634.333	0.16
634.667	0.16
635.001	0.16
635.334	0.16
635.668	0.15
636.001	0.16
636.335	0.16
636.668	0.16
637.001	0.15
637.335	0.16
637.668	0.16
638.001	0.16
638.334	0.16
638.668	0.15
639.001	0.15
639.334	0.15
639.667	0.15
639.999	0.15
640.332	0.15
640.665	0.16
640.998	0.15
641.331	0.15
641.663	0.15
641.996	0.16
642.328	0.16
642.661	0.15
642.993	0.15
643.326	0.15
643.658	0.14
643.99	0.14
644.323	0.14
644.655	0.15
644.987	0.15
645.319	0.15
645.651	0.15
645.983	0.14
646.315	0.14
646.647	0.15
646.979	0.16
647.31	0.15
647.642	0.15
647.974	0.15
648.305	0.16
648.637	0.15
648.968	0.16
649.3	0.15
649.631	0.15
649.963	0.15
650.294	0.15
650.625	0.15
650.957	0.15
651.288	0.15
651.619	0.16
651.95	0.16
652.281	0.16
652.612	0.15
652.943	0.16
653.274	0.16
653.604	0.15
653.935	0.15
654.266	0.15
654.596	0.15
654.927	0.15
655.258	0.15
655.588	0.16
655.918	0.15
656.249	0.13
656.579	0.14
656.909	0.14
657.24	0.15
657.57	0.15
657.9	0.15
658.23	0.15
658.56	0.15
658.89	0.15
659.22	0.15
659.55	0.14
659.88	0.15
660.209	0.15
660.539	0.16
660.869	0.15
661.198	0.15
661.528	0.15
661.857	0.15
662.187	0.15
662.516	0.15
662.846	0.14
663.175	0.15
663.504	0.14
663.833	0.15
664.163	0.15
664.492	0.13
664.821	0.15
665.15	0.15
665.479	0.15
665.807	0.14
666.136	0.15
666.465	0.15
666.794	0.14
667.122	0.15
667.451	0.14
667.78	0.14
668.108	0.14
668.437	0.14
668.765	0.14
669.093	0.14
669.422	0.14
669.75	0.14
670.078	0.14
670.406	0.14
670.734	0.14
671.062	0.14
671.39	0.13
671.718	0.14
672.046	0.14
672.374	0.13
672.702	0.13
673.029	0.13
673.357	0.14
673.685	0.14
674.012	0.14
674.34	0.14
674.667	0.14
674.995	0.14
675.322	0.14
675.649	0.13
675.977	0.14
676.304	0.13
676.631	0.13
676.958	0.13
677.285	0.13
677.612	0.12
677.939	0.13
678.266	0.14
678.593	0.13
678.92	0.14
679.246	0.14
679.573	0.13
679.9	0.13
680.226	0.13
680.553	0.13
680.879	0.14
681.206	0.13
681.532	0.13
681.858	0.13
682.184	0.13
682.511	0.13
682.837	0.13
683.163	0.13
683.489	0.13
683.815	0.12
684.141	0.12
684.467	0.13
684.793	0.12
685.118	0.12
685.444	0.13
685.77	0.12
686.095	0.12
686.421	0.13
686.746	0.13
687.072	0.12
687.397	0.12
687.723	0.13
688.048	0.13
688.373	0.13
688.698	0.13
689.023	0.13
689.349	0.13
689.674	0.13
689.999	0.12
690.323	0.12
690.648	0.12
690.973	0.12
691.298	0.12
691.623	0.12
691.947	0.13
692.272	0.12
692.596	0.13
692.921	0.13
693.245	0.12
693.57	0.12
693.894	0.13
694.218	0.12
694.543	0.12
694.867	0.12
695.191	0.12
695.515	0.12
695.839	0.11
696.163	0.11
696.487	0.12
696.811	0.12
697.135	0.13
697.458	0.12
697.782	0.12
698.106	0.12
698.429	0.11
698.753	0.11
699.076	0.12
699.4	0.12
699.723	0.12
700.046	0.11
700.37	0.12
700.693	0.12
701.016	0.11
701.339	0.11
701.662	0.12
701.985	0.12
702.308	0.11
702.631	0.11
702.954	0.11
703.277	0.11
703.599	0.11
703.922	0.1
704.245	0.1
704.567	0.11
704.89	0.11
705.212	0.11
705.535	0.1
705.857	0.1
706.179	0.1
706.502	0.11
706.824	0.11
707.146	0.1
707.468	0.11
707.79	0.11
708.112	0.11
708.434	0.11
708.756	0.11
709.078	0.11
709.399	0.1
709.721	0.1
710.043	0.11
710.364	0.11
710.686	0.1
711.007	0.1
711.329	0.11
711.65	0.11
711.972	0.11
712.293	0.11
712.614	0.11
712.935	0.11
713.256	0.11
713.577	0.11
713.898	0.11
714.219	0.11
714.54	0.1
714.861	0.09
715.182	0.1
715.503	0.1
715.823	0.09
716.144	0.1
716.464	0.09
716.785	0.09
717.105	0.1
717.426	0.1
717.746	0.09
718.066	0.1
718.387	0.09
718.707	0.09
719.027	0.1
719.347	0.09
719.667	0.1
719.987	0.09
720.307	0.08
720.627	0.09
720.947	0.09
721.266	0.09
721.586	0.09
721.906	0.09
722.225	0.08
722.545	0.09
722.864	0.09
723.184	0.1
723.503	0.08
723.823	0.1
