Data from 12-12-AQDScycling_Absorbance__547__00547.txt Node

Date: Tue Dec 12 13:13:29 EST 2023
User: kyuminlee
Spectrometer: FLMS00943
Trigger mode: 0
Integration Time (sec): 1.000000E-1
Scans to average: 1
Electric dark correction enabled: true
Nonlinearity correction enabled: false
Boxcar width: 0
XAxis mode: Wavelengths
Number of Pixels in Spectrum: 2048
>>>>>Begin Spectral Data<<<<<
179.651	-0
180.037	-0
180.424	-0
180.81	1.38
181.197	0.07
181.583	-0.24
181.97	0.68
182.356	-0
182.743	-0
183.129	0.42
183.515	0.46
183.901	-2.3
184.288	0.37
184.674	0.73
185.06	-0.43
185.446	-0
185.832	-0
186.218	0.12
186.604	-0
186.99	-0
187.376	-0
187.762	-0.53
188.148	0.43
188.534	-0.22
188.92	0.06
189.305	0
189.691	0.02
190.077	0.12
190.463	0.05
190.848	0.04
191.234	0.13
191.619	0.01
192.005	0.13
192.391	0.17
192.776	0.01
193.161	0.14
193.547	0.06
193.932	-0.09
194.318	0.04
194.703	0.1
195.088	0.36
195.473	0.05
195.859	0.23
196.244	0.11
196.629	0.12
197.014	0.07
197.399	0.1
197.784	0.12
198.169	0.28
198.554	0.3
198.939	0.08
199.324	0.18
199.709	0.07
200.094	0.11
200.478	0.15
200.863	0.12
201.248	0.14
201.633	0.08
202.017	0.14
202.402	0.16
202.787	0.09
203.171	0.12
203.556	0.16
203.94	0.05
204.325	0.19
204.709	0.1
205.093	0.01
205.478	0.1
205.862	0.13
206.246	0.11
206.631	0.17
207.015	0.07
207.399	0.15
207.783	0.17
208.167	0.23
208.551	0.12
208.935	0.12
209.319	0.18
209.703	0.11
210.087	0.21
210.471	0.08
210.855	0.22
211.239	0.21
211.623	0.22
212.007	0.25
212.39	0.32
212.774	0.14
213.158	0.08
213.541	0.26
213.925	0.16
214.309	0.43
214.692	0.21
215.076	0.12
215.459	0.21
215.842	0.17
216.226	0.26
216.609	0.16
216.993	0.15
217.376	0.5
217.759	0.1
218.142	0.33
218.525	0.32
218.909	0.27
219.292	0.43
219.675	0.37
220.058	0.51
220.441	0.5
220.824	0.43
221.207	0.5
221.59	0.47
221.973	0.43
222.355	0.58
222.738	0.77
223.121	0.51
223.504	0.55
223.886	0.82
224.269	0.69
224.652	0.65
225.034	0.79
225.417	0.73
225.799	0.68
226.182	0.72
226.564	0.77
226.947	0.65
227.329	0.8
227.711	0.92
228.094	0.85
228.476	0.9
228.858	0.79
229.24	0.83
229.623	1
230.005	0.85
230.387	0.81
230.769	0.75
231.151	1.05
231.533	0.92
231.915	0.91
232.297	1.03
232.679	0.93
233.061	1.08
233.442	0.87
233.824	0.94
234.206	1.06
234.588	1.14
234.969	0.96
235.351	0.93
235.733	0.96
236.114	1.23
236.496	1.14
236.877	1.02
237.259	0.93
237.64	1.05
238.022	1
238.403	0.97
238.784	1
239.165	0.91
239.547	1.08
239.928	1.13
240.309	0.96
240.69	1.03
241.071	1
241.452	1.06
241.834	0.95
242.215	1.05
242.595	1.11
242.976	1.12
243.357	1.1
243.738	0.98
244.119	1.2
244.5	1.1
244.881	1.14
245.261	1.09
245.642	1.15
246.023	1.18
246.403	1.19
246.784	1.27
247.164	1.18
247.545	1.27
247.925	1.2
248.306	1.2
248.686	1.37
249.067	1.24
249.447	1.29
249.827	1.52
250.207	1.38
250.588	1.21
250.968	1.55
251.348	1.35
251.728	1.46
252.108	1.37
252.488	1.47
252.868	1.18
253.248	1.27
253.628	1.32
254.008	1.29
254.388	1.25
254.768	1.27
255.147	1.43
255.527	1.35
255.907	1.31
256.287	1.37
256.666	1.36
257.046	1.46
257.425	1.47
257.805	1.3
258.184	1.34
258.564	1.3
258.943	1.29
259.323	1.47
259.702	1.55
260.081	1.56
260.461	1.46
260.84	1.44
261.219	1.66
261.598	1.51
261.977	1.4
262.356	1.42
262.736	1.55
263.115	1.47
263.494	1.46
263.873	1.46
264.251	1.31
264.63	1.53
265.009	1.35
265.388	1.47
265.767	1.34
266.145	1.45
266.524	1.34
266.903	1.65
267.281	1.37
267.66	1.52
268.039	1.43
268.417	1.32
268.796	1.32
269.174	1.44
269.552	1.41
269.931	1.44
270.309	1.34
270.687	1.5
271.066	1.57
271.444	1.4
271.822	1.41
272.2	1.45
272.578	1.33
272.956	1.26
273.334	1.38
273.712	1.47
274.09	1.57
274.468	1.39
274.846	1.28
275.224	1.34
275.602	1.33
275.98	1.68
276.357	1.41
276.735	1.34
277.113	1.44
277.49	1.36
277.868	1.32
278.246	1.47
278.623	1.26
279.001	1.34
279.378	1.46
279.756	1.41
280.133	1.46
280.51	1.46
280.888	1.54
281.265	1.33
281.642	1.48
282.019	1.53
282.396	1.65
282.773	1.47
283.151	1.46
283.528	1.42
283.905	1.48
284.282	1.44
284.659	1.53
285.035	1.29
285.412	1.22
285.789	1.66
286.166	1.38
286.543	1.41
286.919	1.35
287.296	1.49
287.673	1.91
288.049	1.75
288.426	1.42
288.802	1.56
289.179	1.57
289.555	1.67
289.932	1.39
290.308	1.27
290.684	1.38
291.061	1.32
291.437	1.51
291.813	1.42
292.189	1.3
292.565	1.32
292.942	1.29
293.318	1.36
293.694	1.44
294.07	1.52
294.446	1.34
294.822	1.56
295.197	1.35
295.573	1.36
295.949	1.52
296.325	1.46
296.701	1.47
297.076	1.6
297.452	1.53
297.828	1.45
298.203	1.45
298.579	1.5
298.954	1.3
299.33	1.43
299.705	1.45
300.081	1.48
300.456	1.3
300.831	1.38
301.206	1.34
301.582	1.4
301.957	1.39
302.332	1.33
302.707	1.3
303.082	1.22
303.457	1.36
303.832	1.31
304.207	1.26
304.582	1.25
304.957	1.29
305.332	1.2
305.707	1.22
306.082	1.23
306.456	1.19
306.831	1.18
307.206	1.21
307.58	1.23
307.955	1.19
308.33	1.17
308.704	1.17
309.079	1.13
309.453	1.2
309.828	1.15
310.202	1.11
310.576	1.09
310.951	1.12
311.325	1.17
311.699	1.09
312.073	1.11
312.447	1.11
312.821	1.07
313.196	1.1
313.57	1.05
313.944	1.07
314.317	1.05
314.691	1.02
315.065	1.03
315.439	1.07
315.813	1.1
316.187	1.04
316.56	1.11
316.934	1.11
317.308	1.09
317.681	1.03
318.055	1.04
318.428	1.05
318.802	1.08
319.175	1.07
319.549	1.08
319.922	1.06
320.295	1.05
320.669	1.09
321.042	1.05
321.415	1.06
321.788	1.03
322.162	1.07
322.535	1.03
322.908	1.05
323.281	1.04
323.654	1.11
324.027	1.02
324.4	1.07
324.773	1.09
325.145	1.06
325.518	1
325.891	1.04
326.264	1.12
326.636	1.03
327.009	1.13
327.382	1.04
327.754	1.04
328.127	1.05
328.499	1.06
328.872	1.12
329.244	1.06
329.616	1.08
329.989	1.06
330.361	1.1
330.733	1.06
331.106	1.12
331.478	1.16
331.85	1.08
332.222	1.03
332.594	1.18
332.966	1.12
333.338	1.17
333.71	1.14
334.082	1.22
334.454	1.08
334.826	1.18
335.197	1.09
335.569	1.16
335.941	1.13
336.312	1.19
336.684	1.12
337.056	1.13
337.427	1.22
337.799	1.24
338.17	1.19
338.542	1.15
338.913	1.27
339.284	1.19
339.656	1.18
340.027	1.21
340.398	1.29
340.769	1.17
341.141	1.22
341.512	1.2
341.883	1.2
342.254	1.15
342.625	1.18
342.996	1.2
343.367	1.24
343.738	1.21
344.108	1.24
344.479	1.27
344.85	1.21
345.221	1.23
345.591	1.2
345.962	1.22
346.333	1.18
346.703	1.12
347.074	1.23
347.444	1.21
347.815	1.18
348.185	1.28
348.556	1.34
348.926	1.19
349.296	1.17
349.666	1.24
350.037	1.11
350.407	1.19
350.777	1.14
351.147	1.33
351.517	1.25
351.887	1.29
352.257	1.35
352.627	1.26
352.997	1.28
353.367	1.31
353.737	1.34
354.106	1.35
354.476	1.23
354.846	1.34
355.216	1.4
355.585	1.37
355.955	1.36
356.324	1.39
356.694	1.35
357.063	1.3
357.433	1.4
357.802	1.46
358.171	1.46
358.541	1.38
358.91	1.42
359.279	1.5
359.648	1.43
360.017	1.56
360.387	1.59
360.756	1.32
361.125	1.4
361.494	1.47
361.863	1.4
362.231	1.44
362.6	1.48
362.969	1.5
363.338	1.4
363.707	1.63
364.075	1.62
364.444	1.33
364.813	1.44
365.181	1.48
365.55	1.45
365.918	1.68
366.287	1.5
366.655	1.59
367.024	1.55
367.392	1.56
367.76	1.5
368.128	1.49
368.497	1.56
368.865	1.4
369.233	1.41
369.601	1.51
369.969	1.5
370.337	1.53
370.705	1.52
371.073	1.53
371.441	1.49
371.809	1.51
372.177	1.45
372.544	1.46
372.912	1.56
373.28	1.46
373.647	1.61
374.015	1.6
374.383	1.61
374.75	1.64
375.118	1.49
375.485	1.51
375.853	1.53
376.22	1.55
376.587	1.47
376.955	1.56
377.322	1.53
377.689	1.54
378.056	1.51
378.423	1.5
378.79	1.51
379.157	1.51
379.524	1.76
379.891	1.43
380.258	1.66
380.625	1.59
380.992	1.47
381.359	1.57
381.726	1.8
382.092	1.49
382.459	1.43
382.826	1.61
383.192	1.49
383.559	1.55
383.925	1.59
384.292	1.67
384.658	1.71
385.025	1.7
385.391	1.62
385.757	1.69
386.123	1.45
386.49	1.53
386.856	1.6
387.222	1.63
387.588	1.55
387.954	1.58
388.32	1.64
388.686	1.58
389.052	1.55
389.418	1.63
389.784	1.48
390.15	1.62
390.515	1.45
390.881	1.66
391.247	1.48
391.613	1.66
391.978	1.48
392.344	1.71
392.709	1.56
393.075	1.58
393.44	1.56
393.806	1.67
394.171	1.5
394.536	1.39
394.902	1.61
395.267	1.46
395.632	1.55
395.997	1.48
396.362	1.44
396.727	1.51
397.092	1.71
397.457	1.54
397.822	1.66
398.187	1.56
398.552	1.53
398.917	1.59
399.282	1.61
399.646	1.54
400.011	1.74
400.376	1.46
400.74	1.44
401.105	1.5
401.47	1.66
401.834	1.58
402.199	1.47
402.563	1.5
402.927	1.59
403.292	1.58
403.656	1.49
404.02	1.53
404.384	1.6
404.749	1.53
405.113	1.47
405.477	1.63
405.841	1.54
406.205	1.52
406.569	1.56
406.933	1.51
407.296	1.52
407.66	1.55
408.024	1.65
408.388	1.58
408.752	1.7
409.115	1.79
409.479	1.45
409.842	1.47
410.206	1.49
410.569	1.37
410.933	1.73
411.296	1.6
411.66	1.79
412.023	1.46
412.386	1.5
412.749	1.6
413.113	1.54
413.476	1.49
413.839	1.5
414.202	1.57
414.565	1.56
414.928	1.47
415.291	1.44
415.654	1.42
416.017	1.54
416.38	1.44
416.742	1.42
417.105	1.43
417.468	1.4
417.83	1.32
418.193	1.62
418.556	1.53
418.918	1.43
419.281	1.52
419.643	1.45
420.005	1.46
420.368	1.48
420.73	1.42
421.092	1.53
421.455	1.53
421.817	1.5
422.179	1.52
422.541	1.52
422.903	1.85
423.265	1.51
423.627	1.57
423.989	1.46
424.351	1.4
424.713	1.4
425.075	1.38
425.436	1.42
425.798	1.4
426.16	1.6
426.521	1.54
426.883	1.48
427.245	1.5
427.606	1.37
427.967	1.32
428.329	1.54
428.69	1.5
429.052	1.32
429.413	1.56
429.774	1.48
430.135	1.53
430.497	1.46
430.858	1.52
431.219	1.43
431.58	1.47
431.941	1.38
432.302	1.41
432.663	1.42
433.024	1.51
433.384	1.46
433.745	1.42
434.106	1.5
434.467	1.44
434.827	1.41
435.188	1.44
435.548	1.59
435.909	1.47
436.269	1.42
436.63	1.33
436.99	1.38
437.351	1.33
437.711	1.4
438.071	1.31
438.431	1.39
438.792	1.38
439.152	1.36
439.512	1.36
439.872	1.37
440.232	1.43
440.592	1.38
440.952	1.38
441.312	1.33
441.671	1.38
442.031	1.36
442.391	1.34
442.751	1.39
443.11	1.32
443.47	1.32
443.83	1.3
444.189	1.3
444.549	1.28
444.908	1.31
445.267	1.26
445.627	1.29
445.986	1.21
446.345	1.23
446.705	1.24
447.064	1.23
447.423	1.17
447.782	1.21
448.141	1.26
448.5	1.19
448.859	1.19
449.218	1.19
449.577	1.25
449.936	1.2
450.295	1.21
450.653	1.19
451.012	1.18
451.371	1.16
451.729	1.17
452.088	1.15
452.447	1.19
452.805	1.16
453.163	1.12
453.522	1.12
453.88	1.13
454.239	1.09
454.597	1.07
454.955	1.06
455.313	1.06
455.671	1.08
456.029	1.07
456.388	1.02
456.746	1.03
457.104	1.02
457.461	1
457.819	0.98
458.177	0.98
458.535	0.97
458.893	0.96
459.25	0.93
459.608	0.95
459.966	0.92
460.323	0.93
460.681	0.9
461.038	0.89
461.396	0.87
461.753	0.87
462.111	0.86
462.468	0.83
462.825	0.81
463.182	0.8
463.54	0.8
463.897	0.8
464.254	0.8
464.611	0.78
464.968	0.76
465.325	0.76
465.682	0.75
466.039	0.75
466.395	0.72
466.752	0.71
467.109	0.7
467.466	0.7
467.822	0.7
468.179	0.67
468.535	0.67
468.892	0.66
469.248	0.64
469.605	0.62
469.961	0.62
470.318	0.63
470.674	0.62
471.03	0.62
471.386	0.6
471.743	0.58
472.099	0.58
472.455	0.56
472.811	0.56
473.167	0.56
473.523	0.53
473.879	0.53
474.235	0.53
474.59	0.51
474.946	0.51
475.302	0.51
475.657	0.49
476.013	0.48
476.369	0.47
476.724	0.47
477.08	0.46
477.435	0.46
477.791	0.45
478.146	0.45
478.501	0.44
478.857	0.42
479.212	0.42
479.567	0.41
479.922	0.4
480.277	0.4
480.632	0.39
480.987	0.39
481.342	0.38
481.697	0.36
482.052	0.36
482.407	0.36
482.762	0.35
483.116	0.35
483.471	0.34
483.826	0.33
484.18	0.32
484.535	0.33
484.89	0.33
485.244	0.31
485.598	0.31
485.953	0.3
486.307	0.3
486.661	0.3
487.016	0.29
487.37	0.29
487.724	0.29
488.078	0.28
488.432	0.28
488.786	0.28
489.14	0.27
489.494	0.26
489.848	0.26
490.202	0.26
490.556	0.25
490.91	0.25
491.263	0.23
491.617	0.24
491.971	0.23
492.324	0.23
492.678	0.23
493.031	0.23
493.385	0.23
493.738	0.23
494.091	0.22
494.445	0.22
494.798	0.22
495.151	0.21
495.504	0.21
495.857	0.2
496.21	0.21
496.564	0.2
496.916	0.2
497.269	0.19
497.622	0.2
497.975	0.19
498.328	0.19
498.681	0.19
499.033	0.19
499.386	0.18
499.739	0.18
500.091	0.18
500.444	0.18
500.796	0.18
501.149	0.17
501.501	0.18
501.854	0.17
502.206	0.17
502.558	0.17
502.91	0.17
503.263	0.17
503.615	0.16
503.967	0.16
504.319	0.17
504.671	0.16
505.023	0.16
505.375	0.16
505.726	0.16
506.078	0.16
506.43	0.15
506.782	0.14
507.133	0.15
507.485	0.16
507.837	0.16
508.188	0.16
508.54	0.16
508.891	0.16
509.243	0.15
509.594	0.15
509.945	0.15
510.296	0.15
510.648	0.15
510.999	0.14
511.35	0.15
511.701	0.15
512.052	0.15
512.403	0.15
512.754	0.14
513.105	0.14
513.456	0.15
513.807	0.14
514.157	0.14
514.508	0.14
514.859	0.14
515.209	0.14
515.56	0.15
515.91	0.14
516.261	0.14
516.611	0.14
516.962	0.14
517.312	0.14
517.662	0.15
518.013	0.14
518.363	0.15
518.713	0.15
519.063	0.14
519.413	0.14
519.763	0.14
520.113	0.14
520.463	0.14
520.813	0.14
521.163	0.14
521.512	0.14
521.862	0.13
522.212	0.14
522.562	0.14
522.911	0.14
523.261	0.14
523.61	0.13
523.96	0.14
524.309	0.14
524.658	0.14
525.008	0.13
525.357	0.14
525.706	0.14
526.056	0.14
526.405	0.14
526.754	0.14
527.103	0.13
527.452	0.14
527.801	0.14
528.15	0.14
528.499	0.13
528.847	0.14
529.196	0.15
529.545	0.14
529.893	0.15
530.242	0.14
530.591	0.14
530.939	0.15
531.288	0.14
531.636	0.15
531.985	0.14
532.333	0.14
532.681	0.15
533.029	0.15
533.378	0.15
533.726	0.14
534.074	0.15
534.422	0.14
534.77	0.14
535.118	0.14
535.466	0.14
535.814	0.14
536.162	0.15
536.509	0.15
536.857	0.14
537.205	0.14
537.552	0.15
537.9	0.14
538.248	0.14
538.595	0.14
538.943	0.15
539.29	0.14
539.637	0.14
539.985	0.14
540.332	0.14
540.679	0.14
541.026	0.14
541.373	0.15
541.721	0.13
542.068	0.14
542.415	0.14
542.762	0.14
543.108	0.13
543.455	0.13
543.802	0.13
544.149	0.13
544.496	0.13
544.842	0.13
545.189	0.12
545.535	0.13
545.882	0.13
546.228	0.13
546.575	0.13
546.921	0.13
547.267	0.13
547.614	0.13
547.96	0.14
548.306	0.13
548.652	0.13
548.998	0.14
549.344	0.13
549.69	0.14
550.036	0.13
550.382	0.13
550.728	0.13
551.074	0.14
551.42	0.14
551.765	0.14
552.111	0.14
552.457	0.15
552.802	0.13
553.148	0.13
553.493	0.14
553.839	0.14
554.184	0.14
554.529	0.13
554.875	0.14
555.22	0.14
555.565	0.13
555.91	0.14
556.255	0.14
556.6	0.14
556.945	0.13
557.29	0.13
557.635	0.14
557.98	0.14
558.325	0.14
558.67	0.14
559.014	0.14
559.359	0.14
559.704	0.14
560.048	0.13
560.393	0.14
560.737	0.13
561.082	0.14
561.426	0.13
561.77	0.13
562.115	0.13
562.459	0.14
562.803	0.13
563.147	0.14
563.491	0.14
563.835	0.14
564.179	0.15
564.523	0.14
564.867	0.14
565.211	0.14
565.555	0.14
565.899	0.14
566.242	0.14
566.586	0.14
566.93	0.14
567.273	0.14
567.617	0.14
567.96	0.14
568.304	0.14
568.647	0.13
568.99	0.14
569.334	0.14
569.677	0.13
570.02	0.15
570.363	0.14
570.706	0.14
571.049	0.14
571.392	0.15
571.735	0.13
572.078	0.14
572.421	0.15
572.764	0.14
573.106	0.14
573.449	0.14
573.792	0.14
574.134	0.14
574.477	0.15
574.819	0.13
575.162	0.14
575.504	0.14
575.847	0.13
576.189	0.14
576.531	0.14
576.873	0.13
577.215	0.14
577.558	0.15
577.9	0.13
578.242	0.14
578.584	0.14
578.926	0.14
579.267	0.14
579.609	0.14
579.951	0.14
580.293	0.14
580.634	0.15
580.976	0.14
581.318	0.13
581.659	0.14
582.001	0.13
582.342	0.13
582.683	0.14
583.025	0.13
583.366	0.13
583.707	0.13
584.049	0.13
584.39	0.13
584.731	0.13
585.072	0.13
585.413	0.14
585.754	0.14
586.095	0.14
586.435	0.13
586.776	0.13
587.117	0.14
587.458	0.13
587.798	0.14
588.139	0.13
588.48	0.13
588.82	0.13
589.161	0.14
589.501	0.13
589.841	0.13
590.182	0.13
590.522	0.13
590.862	0.13
591.202	0.13
591.542	0.13
591.882	0.13
592.222	0.14
592.562	0.14
592.902	0.13
593.242	0.13
593.582	0.14
593.922	0.13
594.261	0.13
594.601	0.14
594.941	0.13
595.28	0.13
595.62	0.14
595.959	0.13
596.299	0.13
596.638	0.13
596.977	0.13
597.317	0.14
597.656	0.13
597.995	0.14
598.334	0.14
598.673	0.13
599.012	0.14
599.351	0.14
599.69	0.13
600.029	0.14
600.368	0.13
600.707	0.13
601.046	0.13
601.384	0.14
601.723	0.14
602.061	0.13
602.4	0.14
602.738	0.14
603.077	0.14
603.415	0.13
603.754	0.13
604.092	0.14
604.43	0.14
604.768	0.13
605.107	0.14
605.445	0.13
605.783	0.13
606.121	0.13
606.459	0.13
606.796	0.14
607.134	0.13
607.472	0.12
607.81	0.13
608.148	0.12
608.485	0.14
608.823	0.13
609.16	0.12
609.498	0.13
609.835	0.13
610.173	0.13
610.51	0.13
610.847	0.13
611.185	0.14
611.522	0.12
611.859	0.13
612.196	0.14
612.533	0.14
612.87	0.14
613.207	0.14
613.544	0.14
613.881	0.14
614.217	0.14
614.554	0.14
614.891	0.14
615.228	0.14
615.564	0.14
615.901	0.14
616.237	0.14
616.574	0.14
616.91	0.15
617.246	0.14
617.583	0.14
617.919	0.14
618.255	0.14
618.591	0.13
618.927	0.14
619.263	0.15
619.599	0.14
619.935	0.14
620.271	0.14
620.607	0.14
620.943	0.14
621.279	0.14
621.614	0.14
621.95	0.13
622.286	0.13
622.621	0.13
622.957	0.13
623.292	0.13
623.627	0.13
623.963	0.14
624.298	0.13
624.633	0.13
624.968	0.12
625.304	0.13
625.639	0.13
625.974	0.13
626.309	0.12
626.644	0.12
626.979	0.13
627.313	0.13
627.648	0.13
627.983	0.13
628.318	0.13
628.652	0.13
628.987	0.13
629.321	0.13
629.656	0.12
629.99	0.12
630.325	0.12
630.659	0.12
630.993	0.11
631.327	0.12
631.662	0.11
631.996	0.11
632.33	0.12
632.664	0.12
632.998	0.11
633.332	0.12
633.666	0.12
633.999	0.12
634.333	0.12
634.667	0.12
635.001	0.11
635.334	0.12
635.668	0.11
636.001	0.11
636.335	0.12
636.668	0.11
637.001	0.11
637.335	0.11
637.668	0.12
638.001	0.11
638.334	0.11
638.668	0.11
639.001	0.12
639.334	0.11
639.667	0.11
639.999	0.11
640.332	0.12
640.665	0.11
640.998	0.11
641.331	0.12
641.663	0.11
641.996	0.11
642.328	0.12
642.661	0.11
642.993	0.11
643.326	0.11
643.658	0.1
643.99	0.11
644.323	0.11
644.655	0.11
644.987	0.11
645.319	0.11
645.651	0.11
645.983	0.11
646.315	0.11
646.647	0.11
646.979	0.12
647.31	0.12
647.642	0.11
647.974	0.1
648.305	0.12
648.637	0.11
648.968	0.11
649.3	0.11
649.631	0.12
649.963	0.11
650.294	0.12
650.625	0.11
650.957	0.11
651.288	0.12
651.619	0.12
651.95	0.11
652.281	0.12
652.612	0.11
652.943	0.12
653.274	0.12
653.604	0.12
653.935	0.12
654.266	0.12
654.596	0.11
654.927	0.11
655.258	0.11
655.588	0.12
655.918	0.12
656.249	0.09
656.579	0.11
656.909	0.11
657.24	0.11
657.57	0.11
657.9	0.11
658.23	0.11
658.56	0.11
658.89	0.12
659.22	0.11
659.55	0.11
659.88	0.11
660.209	0.11
660.539	0.12
660.869	0.12
661.198	0.11
661.528	0.11
661.857	0.11
662.187	0.12
662.516	0.11
662.846	0.11
663.175	0.11
663.504	0.11
663.833	0.1
664.163	0.11
664.492	0.11
664.821	0.12
665.15	0.11
665.479	0.11
665.807	0.11
666.136	0.11
666.465	0.12
666.794	0.11
667.122	0.11
667.451	0.1
667.78	0.11
668.108	0.11
668.437	0.11
668.765	0.11
669.093	0.11
669.422	0.11
669.75	0.11
670.078	0.11
670.406	0.1
670.734	0.11
671.062	0.11
671.39	0.1
671.718	0.11
672.046	0.1
672.374	0.1
672.702	0.1
673.029	0.1
673.357	0.1
673.685	0.11
674.012	0.1
674.34	0.1
674.667	0.11
674.995	0.1
675.322	0.1
675.649	0.1
675.977	0.1
676.304	0.1
676.631	0.1
676.958	0.1
677.285	0.1
677.612	0.1
677.939	0.11
678.266	0.1
678.593	0.1
678.92	0.1
679.246	0.1
679.573	0.1
679.9	0.1
680.226	0.1
680.553	0.09
680.879	0.1
681.206	0.1
681.532	0.1
681.858	0.1
682.184	0.1
682.511	0.1
682.837	0.1
683.163	0.1
683.489	0.1
683.815	0.1
684.141	0.1
684.467	0.1
684.793	0.09
685.118	0.09
685.444	0.1
685.77	0.09
686.095	0.1
686.421	0.09
686.746	0.1
687.072	0.1
687.397	0.09
687.723	0.1
688.048	0.1
688.373	0.09
688.698	0.1
689.023	0.09
689.349	0.1
689.674	0.1
689.999	0.09
690.323	0.09
690.648	0.09
690.973	0.09
691.298	0.09
691.623	0.09
691.947	0.1
692.272	0.09
692.596	0.1
692.921	0.1
693.245	0.09
693.57	0.1
693.894	0.1
694.218	0.1
694.543	0.09
694.867	0.1
695.191	0.1
695.515	0.1
695.839	0.09
696.163	0.1
696.487	0.1
696.811	0.09
697.135	0.1
697.458	0.09
697.782	0.09
698.106	0.09
698.429	0.1
698.753	0.09
699.076	0.09
699.4	0.09
699.723	0.09
700.046	0.08
700.37	0.09
700.693	0.08
701.016	0.09
701.339	0.09
701.662	0.09
701.985	0.1
702.308	0.09
702.631	0.09
702.954	0.1
703.277	0.09
703.599	0.09
703.922	0.08
704.245	0.08
704.567	0.09
704.89	0.09
705.212	0.09
705.535	0.08
705.857	0.08
706.179	0.09
706.502	0.08
706.824	0.08
707.146	0.08
707.468	0.09
707.79	0.09
708.112	0.09
708.434	0.09
708.756	0.09
709.078	0.08
709.399	0.08
709.721	0.08
710.043	0.09
710.364	0.09
710.686	0.08
711.007	0.08
711.329	0.09
711.65	0.08
711.972	0.09
712.293	0.09
712.614	0.09
712.935	0.09
713.256	0.08
713.577	0.1
713.898	0.08
714.219	0.08
714.54	0.08
714.861	0.08
715.182	0.08
715.503	0.08
715.823	0.08
716.144	0.08
716.464	0.08
716.785	0.07
717.105	0.07
717.426	0.08
717.746	0.07
718.066	0.07
718.387	0.07
718.707	0.07
719.027	0.08
719.347	0.07
719.667	0.07
719.987	0.07
720.307	0.07
720.627	0.07
720.947	0.07
721.266	0.07
721.586	0.06
721.906	0.07
722.225	0.07
722.545	0.07
722.864	0.07
723.184	0.07
723.503	0.07
723.823	0.08
724.142	0.07
724.461	0.07
724.78	0.07
725.099	0.07
