Data from 12-12-AQDScycling_Absorbance__66__00066.txt Node

Date: Tue Dec 12 11:13:14 EST 2023
User: kyuminlee
Spectrometer: FLMS00943
Trigger mode: 0
Integration Time (sec): 1.000000E-1
Scans to average: 1
Electric dark correction enabled: true
Nonlinearity correction enabled: false
Boxcar width: 0
XAxis mode: Wavelengths
Number of Pixels in Spectrum: 2048
>>>>>Begin Spectral Data<<<<<
179.651	-0
180.037	-0
180.424	-0
180.81	0.38
181.197	0.45
181.583	-0
181.97	-0.15
182.356	-0
182.743	-0
183.129	0.31
183.515	0.01
183.901	-2.28
184.288	0.22
184.674	-0
185.06	-0.94
185.446	0.36
185.832	-0.81
186.218	-0
186.604	0.55
186.99	-0
187.376	-0
187.762	-0
188.148	-0
188.534	-0.11
188.92	0.1
189.305	0.13
189.691	0.16
190.077	0.16
190.463	0.08
190.848	0.17
191.234	0.1
191.619	0.19
192.005	0.11
192.391	0.18
192.776	0.12
193.161	0.1
193.547	0.28
193.932	0.07
194.318	0.07
194.703	0.05
195.088	0.11
195.473	0.15
195.859	0.27
196.244	0.39
196.629	0.16
197.014	0.04
197.399	0.09
197.784	0.37
198.169	0.26
198.554	0.28
198.939	0.16
199.324	0.11
199.709	0.11
200.094	0.16
200.478	0.18
200.863	0.23
201.248	0.02
201.633	0.28
202.017	0.14
202.402	0.21
202.787	0.1
203.171	0.14
203.556	0.11
203.94	0.27
204.325	0.23
204.709	0.2
205.093	0.01
205.478	0.15
205.862	0.01
206.246	0.2
206.631	0.09
207.015	0.12
207.399	0.21
207.783	0.19
208.167	0.14
208.551	0.19
208.935	0.29
209.319	0.18
209.703	0.21
210.087	0.23
210.471	0.15
210.855	0.29
211.239	0.23
211.623	0.25
212.007	0.33
212.39	0.32
212.774	0.32
213.158	0.12
213.541	0.31
213.925	0.26
214.309	0.33
214.692	0.35
215.076	0.28
215.459	0.23
215.842	0.23
216.226	0.27
216.609	0.3
216.993	0.22
217.376	0.34
217.759	0.36
218.142	0.37
218.525	0.43
218.909	0.32
219.292	0.28
219.675	0.54
220.058	0.46
220.441	0.73
220.824	0.49
221.207	0.69
221.59	0.54
221.973	0.59
222.355	0.62
222.738	0.74
223.121	0.7
223.504	0.73
223.886	0.66
224.269	0.73
224.652	0.72
225.034	0.72
225.417	0.75
225.799	0.88
226.182	0.88
226.564	1.03
226.947	0.76
227.329	0.76
227.711	1
228.094	1.16
228.476	0.99
228.858	0.87
229.24	0.85
229.623	0.98
230.005	0.84
230.387	0.87
230.769	0.89
231.151	0.95
231.533	0.94
231.915	1
232.297	1.06
232.679	0.91
233.061	0.85
233.442	1.12
233.824	1.06
234.206	1.05
234.588	1.09
234.969	0.96
235.351	0.99
235.733	0.98
236.114	1.28
236.496	0.96
236.877	1.1
237.259	0.96
237.64	1.18
238.022	0.98
238.403	1.07
238.784	1.05
239.165	0.97
239.547	1.06
239.928	1.23
240.309	1.12
240.69	1
241.071	1.04
241.452	1.26
241.834	0.99
242.215	1.24
242.595	1.23
242.976	1.15
243.357	1.2
243.738	1.11
244.119	1.23
244.5	1.24
244.881	1.34
245.261	1.22
245.642	1.17
246.023	1.09
246.403	1.32
246.784	1.24
247.164	1.28
247.545	1.35
247.925	1.41
248.306	1.27
248.686	1.56
249.067	1.24
249.447	1.47
249.827	1.43
250.207	1.48
250.588	1.34
250.968	1.49
251.348	1.51
251.728	1.56
252.108	1.4
252.488	1.43
252.868	1.38
253.248	1.33
253.628	1.46
254.008	1.58
254.388	1.42
254.768	1.44
255.147	1.41
255.527	1.48
255.907	1.39
256.287	1.35
256.666	1.42
257.046	1.53
257.425	1.52
257.805	1.46
258.184	1.34
258.564	1.37
258.943	1.37
259.323	1.51
259.702	1.51
260.081	1.51
260.461	1.56
260.84	1.46
261.219	1.6
261.598	1.52
261.977	1.57
262.356	1.57
262.736	1.68
263.115	1.54
263.494	1.37
263.873	1.62
264.251	1.47
264.63	1.61
265.009	1.37
265.388	1.47
265.767	1.35
266.145	1.47
266.524	1.55
266.903	1.4
267.281	1.36
267.66	1.52
268.039	1.63
268.417	1.58
268.796	1.51
269.174	1.59
269.552	1.48
269.931	1.56
270.309	1.51
270.687	1.72
271.066	1.5
271.444	1.42
271.822	1.6
272.2	1.65
272.578	1.48
272.956	1.54
273.334	1.54
273.712	1.52
274.09	1.57
274.468	1.44
274.846	1.25
275.224	1.38
275.602	1.45
275.98	1.62
276.357	1.57
276.735	1.51
277.113	1.38
277.49	1.44
277.868	1.26
278.246	1.39
278.623	1.34
279.001	1.47
279.378	1.46
279.756	1.69
280.133	1.75
280.51	1.51
280.888	1.53
281.265	1.45
281.642	1.54
282.019	1.42
282.396	1.73
282.773	1.59
283.151	1.56
283.528	1.61
283.905	1.32
284.282	1.82
284.659	1.4
285.035	1.38
285.412	1.42
285.789	1.4
286.166	1.52
286.543	1.5
286.919	1.54
287.296	1.3
287.673	1.59
288.049	1.59
288.426	1.63
288.802	1.58
289.179	1.47
289.555	1.86
289.932	1.45
290.308	1.34
290.684	1.42
291.061	1.55
291.437	1.48
291.813	1.35
292.189	1.24
292.565	1.24
292.942	1.43
293.318	1.33
293.694	1.37
294.07	1.36
294.446	1.44
294.822	1.6
295.197	1.44
295.573	1.45
295.949	1.57
296.325	1.63
296.701	1.59
297.076	1.64
297.452	1.53
297.828	1.4
298.203	1.51
298.579	1.34
298.954	1.43
299.33	1.41
299.705	1.45
300.081	1.53
300.456	1.49
300.831	1.41
301.206	1.44
301.582	1.5
301.957	1.42
302.332	1.46
302.707	1.36
303.082	1.33
303.457	1.39
303.832	1.36
304.207	1.36
304.582	1.34
304.957	1.36
305.332	1.44
305.707	1.4
306.082	1.42
306.456	1.53
306.831	1.36
307.206	1.36
307.58	1.34
307.955	1.34
308.33	1.26
308.704	1.42
309.079	1.23
309.453	1.44
309.828	1.37
310.202	1.26
310.576	1.26
310.951	1.36
311.325	1.34
311.699	1.3
312.073	1.27
312.447	1.25
312.821	1.24
313.196	1.46
313.57	1.25
313.944	1.3
314.317	1.24
314.691	1.33
315.065	1.36
315.439	1.46
315.813	1.33
316.187	1.25
316.56	1.49
316.934	1.33
317.308	1.3
317.681	1.34
318.055	1.38
318.428	1.31
318.802	1.36
319.175	1.32
319.549	1.25
319.922	1.27
320.295	1.33
320.669	1.4
321.042	1.38
321.415	1.4
321.788	1.36
322.162	1.22
322.535	1.34
322.908	1.4
323.281	1.29
323.654	1.47
324.027	1.31
324.4	1.37
324.773	1.41
325.145	1.46
325.518	1.3
325.891	1.29
326.264	1.36
326.636	1.35
327.009	1.31
327.382	1.33
327.754	1.46
328.127	1.44
328.499	1.49
328.872	1.37
329.244	1.4
329.616	1.3
329.989	1.33
330.361	1.39
330.733	1.38
331.106	1.25
331.478	1.35
331.85	1.42
332.222	1.32
332.594	1.35
332.966	1.39
333.338	1.66
333.71	1.37
334.082	1.47
334.454	1.4
334.826	1.35
335.197	1.41
335.569	1.36
335.941	1.34
336.312	1.4
336.684	1.49
337.056	1.32
337.427	1.49
337.799	1.52
338.17	1.43
338.542	1.41
338.913	1.41
339.284	1.44
339.656	1.36
340.027	1.38
340.398	1.42
340.769	1.45
341.141	1.48
341.512	1.36
341.883	1.45
342.254	1.28
342.625	1.41
342.996	1.47
343.367	1.47
343.738	1.47
344.108	1.39
344.479	1.48
344.85	1.39
345.221	1.49
345.591	1.31
345.962	1.33
346.333	1.41
346.703	1.27
347.074	1.4
347.444	1.22
347.815	1.26
348.185	1.42
348.556	1.31
348.926	1.33
349.296	1.41
349.666	1.44
350.037	1.24
350.407	1.19
350.777	1.33
351.147	1.35
351.517	1.29
351.887	1.31
352.257	1.35
352.627	1.28
352.997	1.34
353.367	1.35
353.737	1.4
354.106	1.47
354.476	1.35
354.846	1.37
355.216	1.49
355.585	1.38
355.955	1.43
356.324	1.4
356.694	1.36
357.063	1.38
357.433	1.39
357.802	1.44
358.171	1.47
358.541	1.39
358.91	1.45
359.279	1.48
359.648	1.37
360.017	1.41
360.387	1.39
360.756	1.38
361.125	1.45
361.494	1.43
361.863	1.39
362.231	1.38
362.6	1.33
362.969	1.37
363.338	1.43
363.707	1.55
364.075	1.55
364.444	1.35
364.813	1.45
365.181	1.45
365.55	1.4
365.918	1.46
366.287	1.5
366.655	1.51
367.024	1.4
367.392	1.56
367.76	1.36
368.128	1.44
368.497	1.53
368.865	1.38
369.233	1.38
369.601	1.45
369.969	1.49
370.337	1.48
370.705	1.37
371.073	1.39
371.441	1.46
371.809	1.39
372.177	1.52
372.544	1.47
372.912	1.4
373.28	1.51
373.647	1.47
374.015	1.61
374.383	1.6
374.75	1.58
375.118	1.54
375.485	1.53
375.853	1.73
376.22	1.52
376.587	1.53
376.955	1.7
377.322	1.73
377.689	1.59
378.056	1.48
378.423	1.41
378.79	1.56
379.157	1.61
379.524	1.51
379.891	1.41
380.258	1.51
380.625	1.51
380.992	1.6
381.359	1.53
381.726	1.58
382.092	1.49
382.459	1.57
382.826	1.51
383.192	1.52
383.559	1.66
383.925	1.63
384.292	1.61
384.658	1.7
385.025	1.68
385.391	1.84
385.757	1.71
386.123	1.58
386.49	1.59
386.856	1.55
387.222	1.56
387.588	1.5
387.954	1.76
388.32	1.61
388.686	1.56
389.052	1.53
389.418	1.67
389.784	1.53
390.15	1.69
390.515	1.39
390.881	1.55
391.247	1.47
391.613	1.51
391.978	1.5
392.344	1.58
392.709	1.67
393.075	1.61
393.44	1.58
393.806	1.73
394.171	1.47
394.536	1.43
394.902	1.72
395.267	1.59
395.632	1.44
395.997	1.55
396.362	1.55
396.727	1.52
397.092	1.54
397.457	1.52
397.822	1.54
398.187	1.7
398.552	1.51
398.917	1.5
399.282	1.47
399.646	1.49
400.011	1.65
400.376	1.53
400.74	1.48
401.105	1.54
401.47	1.59
401.834	1.47
402.199	1.53
402.563	1.54
402.927	1.59
403.292	1.51
403.656	1.59
404.02	1.64
404.384	1.56
404.749	1.47
405.113	1.56
405.477	1.52
405.841	1.55
406.205	1.36
406.569	1.42
406.933	1.35
407.296	1.58
407.66	1.42
408.024	1.66
408.388	1.49
408.752	1.5
409.115	1.67
409.479	1.51
409.842	1.54
410.206	1.45
410.569	1.45
410.933	1.5
411.296	1.39
411.66	1.65
412.023	1.37
412.386	1.41
412.749	1.32
413.113	1.36
413.476	1.34
413.839	1.35
414.202	1.45
414.565	1.3
414.928	1.39
415.291	1.24
415.654	1.28
416.017	1.37
416.38	1.34
416.742	1.35
417.105	1.38
417.468	1.29
417.83	1.43
418.193	1.45
418.556	1.34
418.918	1.33
419.281	1.31
419.643	1.44
420.005	1.31
420.368	1.32
420.73	1.23
421.092	1.38
421.455	1.41
421.817	1.18
422.179	1.27
422.541	1.34
422.903	1.45
423.265	1.36
423.627	1.26
423.989	1.27
424.351	1.32
424.713	1.29
425.075	1.32
425.436	1.33
425.798	1.26
426.16	1.3
426.521	1.28
426.883	1.34
427.245	1.3
427.606	1.23
427.967	1.26
428.329	1.24
428.69	1.33
429.052	1.23
429.413	1.31
429.774	1.25
430.135	1.25
430.497	1.3
430.858	1.22
431.219	1.27
431.58	1.23
431.941	1.25
432.302	1.23
432.663	1.27
433.024	1.26
433.384	1.27
433.745	1.24
434.106	1.31
434.467	1.23
434.827	1.2
435.188	1.27
435.548	1.26
435.909	1.16
436.269	1.26
436.63	1.18
436.99	1.21
437.351	1.11
437.711	1.21
438.071	1.14
438.431	1.16
438.792	1.15
439.152	1.13
439.512	1.15
439.872	1.13
440.232	1.19
440.592	1.17
440.952	1.12
441.312	1.13
441.671	1.14
442.031	1.08
442.391	1.07
442.751	1.12
443.11	1.09
443.47	1.06
443.83	1.08
444.189	1.05
444.549	1.11
444.908	1.06
445.267	1.06
445.627	1.08
445.986	1.06
446.345	1.03
446.705	1.05
447.064	1.05
447.423	1.01
447.782	0.99
448.141	1
448.5	0.96
448.859	0.99
449.218	0.99
449.577	1
449.936	1
450.295	0.98
450.653	0.96
451.012	0.97
451.371	0.95
451.729	0.94
452.088	0.95
452.447	0.93
452.805	0.95
453.163	0.92
453.522	0.92
453.88	0.93
454.239	0.9
454.597	0.87
454.955	0.87
455.313	0.9
455.671	0.88
456.029	0.86
456.388	0.84
456.746	0.84
457.104	0.82
457.461	0.81
457.819	0.81
458.177	0.79
458.535	0.79
458.893	0.79
459.25	0.77
459.608	0.78
459.966	0.77
460.323	0.77
460.681	0.73
461.038	0.73
461.396	0.71
461.753	0.7
462.111	0.71
462.468	0.7
462.825	0.69
463.182	0.68
463.54	0.67
463.897	0.68
464.254	0.65
464.611	0.65
464.968	0.64
465.325	0.63
465.682	0.62
466.039	0.62
466.395	0.62
466.752	0.6
467.109	0.58
467.466	0.59
467.822	0.58
468.179	0.57
468.535	0.56
468.892	0.56
469.248	0.55
469.605	0.54
469.961	0.54
470.318	0.55
470.674	0.53
471.03	0.53
471.386	0.51
471.743	0.5
472.099	0.5
472.455	0.49
472.811	0.48
473.167	0.47
473.523	0.46
473.879	0.47
474.235	0.45
474.59	0.45
474.946	0.44
475.302	0.44
475.657	0.43
476.013	0.42
476.369	0.41
476.724	0.41
477.08	0.42
477.435	0.41
477.791	0.39
478.146	0.4
478.501	0.4
478.857	0.39
479.212	0.38
479.567	0.37
479.922	0.36
480.277	0.36
480.632	0.35
480.987	0.35
481.342	0.35
481.697	0.34
482.052	0.33
482.407	0.33
482.762	0.32
483.116	0.32
483.471	0.32
483.826	0.31
484.18	0.3
484.535	0.3
484.89	0.3
485.244	0.3
485.598	0.3
485.953	0.28
486.307	0.28
486.661	0.28
487.016	0.27
487.37	0.28
487.724	0.28
488.078	0.27
488.432	0.27
488.786	0.26
489.14	0.26
489.494	0.26
489.848	0.25
490.202	0.25
490.556	0.25
490.91	0.25
491.263	0.24
491.617	0.25
491.971	0.24
492.324	0.23
492.678	0.23
493.031	0.23
493.385	0.22
493.738	0.23
494.091	0.23
494.445	0.22
494.798	0.21
495.151	0.22
495.504	0.22
495.857	0.22
496.21	0.22
496.564	0.21
496.916	0.22
497.269	0.21
497.622	0.21
497.975	0.21
498.328	0.21
498.681	0.21
499.033	0.2
499.386	0.2
499.739	0.19
500.091	0.2
500.444	0.2
500.796	0.21
501.149	0.2
501.501	0.2
501.854	0.2
502.206	0.19
502.558	0.2
502.91	0.2
503.263	0.19
503.615	0.19
503.967	0.19
504.319	0.19
504.671	0.18
505.023	0.18
505.375	0.18
505.726	0.18
506.078	0.18
506.43	0.17
506.782	0.18
507.133	0.18
507.485	0.18
507.837	0.18
508.188	0.18
508.54	0.18
508.891	0.18
509.243	0.18
509.594	0.17
509.945	0.17
510.296	0.17
510.648	0.17
510.999	0.17
511.35	0.17
511.701	0.17
512.052	0.18
512.403	0.17
512.754	0.16
513.105	0.16
513.456	0.16
513.807	0.16
514.157	0.17
514.508	0.16
514.859	0.15
515.209	0.16
515.56	0.16
515.91	0.15
516.261	0.16
516.611	0.16
516.962	0.16
517.312	0.16
517.662	0.17
518.013	0.17
518.363	0.17
518.713	0.16
519.063	0.16
519.413	0.16
519.763	0.15
520.113	0.16
520.463	0.16
520.813	0.16
521.163	0.16
521.512	0.16
521.862	0.16
522.212	0.16
522.562	0.16
522.911	0.16
523.261	0.16
523.61	0.16
523.96	0.16
524.309	0.16
524.658	0.16
525.008	0.16
525.357	0.16
525.706	0.16
526.056	0.16
526.405	0.16
526.754	0.16
527.103	0.16
527.452	0.16
527.801	0.17
528.15	0.17
528.499	0.16
528.847	0.16
529.196	0.17
529.545	0.17
529.893	0.17
530.242	0.16
530.591	0.17
530.939	0.17
531.288	0.17
531.636	0.17
531.985	0.16
532.333	0.16
532.681	0.16
533.029	0.16
533.378	0.17
533.726	0.16
534.074	0.17
534.422	0.16
534.77	0.17
535.118	0.16
535.466	0.16
535.814	0.16
536.162	0.17
536.509	0.18
536.857	0.17
537.205	0.17
537.552	0.17
537.9	0.17
538.248	0.16
538.595	0.17
538.943	0.17
539.29	0.17
539.637	0.16
539.985	0.16
540.332	0.16
540.679	0.16
541.026	0.15
541.373	0.16
541.721	0.16
542.068	0.17
542.415	0.16
542.762	0.16
543.108	0.15
543.455	0.15
543.802	0.15
544.149	0.16
544.496	0.16
544.842	0.16
545.189	0.15
545.535	0.16
545.882	0.16
546.228	0.16
546.575	0.16
546.921	0.16
547.267	0.16
547.614	0.15
547.96	0.16
548.306	0.16
548.652	0.16
548.998	0.17
549.344	0.16
549.69	0.16
550.036	0.17
550.382	0.16
550.728	0.16
551.074	0.16
551.42	0.17
551.765	0.16
552.111	0.17
552.457	0.17
552.802	0.16
553.148	0.17
553.493	0.16
553.839	0.17
554.184	0.17
554.529	0.16
554.875	0.17
555.22	0.17
555.565	0.17
555.91	0.17
556.255	0.17
556.6	0.17
556.945	0.17
557.29	0.17
557.635	0.17
557.98	0.17
558.325	0.16
558.67	0.16
559.014	0.17
559.359	0.17
559.704	0.16
560.048	0.14
560.393	0.16
560.737	0.15
561.082	0.16
561.426	0.16
561.77	0.15
562.115	0.15
562.459	0.16
562.803	0.16
563.147	0.16
563.491	0.16
563.835	0.16
564.179	0.16
564.523	0.17
564.867	0.16
565.211	0.16
565.555	0.17
565.899	0.18
566.242	0.16
566.586	0.16
566.93	0.16
567.273	0.17
567.617	0.16
567.96	0.17
568.304	0.17
568.647	0.17
568.99	0.16
569.334	0.17
569.677	0.17
570.02	0.17
570.363	0.17
570.706	0.18
571.049	0.17
571.392	0.17
571.735	0.17
572.078	0.17
572.421	0.18
572.764	0.17
573.106	0.18
573.449	0.16
573.792	0.16
574.134	0.17
574.477	0.17
574.819	0.17
575.162	0.16
575.504	0.17
575.847	0.17
576.189	0.17
576.531	0.17
576.873	0.17
577.215	0.16
577.558	0.16
577.9	0.16
578.242	0.16
578.584	0.16
578.926	0.16
579.267	0.15
579.609	0.16
579.951	0.16
580.293	0.16
580.634	0.17
580.976	0.16
581.318	0.15
581.659	0.16
582.001	0.16
582.342	0.16
582.683	0.16
583.025	0.16
583.366	0.16
583.707	0.17
584.049	0.16
584.39	0.16
584.731	0.16
585.072	0.15
585.413	0.17
585.754	0.17
586.095	0.16
586.435	0.16
586.776	0.16
587.117	0.16
587.458	0.16
587.798	0.16
588.139	0.16
588.48	0.15
588.82	0.15
589.161	0.15
589.501	0.16
589.841	0.16
590.182	0.15
590.522	0.15
590.862	0.16
591.202	0.15
591.542	0.15
591.882	0.16
592.222	0.15
592.562	0.15
592.902	0.15
593.242	0.16
593.582	0.16
593.922	0.15
594.261	0.15
594.601	0.16
594.941	0.15
595.28	0.16
595.62	0.15
595.959	0.15
596.299	0.15
596.638	0.15
596.977	0.16
597.317	0.16
597.656	0.16
597.995	0.15
598.334	0.16
598.673	0.16
599.012	0.15
599.351	0.16
599.69	0.15
600.029	0.16
600.368	0.16
600.707	0.16
601.046	0.16
601.384	0.16
601.723	0.16
602.061	0.15
602.4	0.15
602.738	0.16
603.077	0.15
603.415	0.15
603.754	0.15
604.092	0.16
604.43	0.16
604.768	0.16
605.107	0.16
605.445	0.15
605.783	0.16
606.121	0.15
606.459	0.15
606.796	0.16
607.134	0.15
607.472	0.16
607.81	0.16
608.148	0.15
608.485	0.16
608.823	0.16
609.16	0.15
609.498	0.16
609.835	0.15
610.173	0.15
610.51	0.16
610.847	0.16
611.185	0.16
611.522	0.17
611.859	0.16
612.196	0.16
612.533	0.17
612.87	0.17
613.207	0.17
613.544	0.17
613.881	0.18
614.217	0.17
614.554	0.17
614.891	0.17
615.228	0.16
615.564	0.17
615.901	0.16
616.237	0.16
616.574	0.16
616.91	0.16
617.246	0.16
617.583	0.16
617.919	0.16
618.255	0.16
618.591	0.16
618.927	0.17
619.263	0.16
619.599	0.16
619.935	0.16
620.271	0.16
620.607	0.16
620.943	0.16
621.279	0.17
621.614	0.16
621.95	0.16
622.286	0.15
622.621	0.15
622.957	0.15
623.292	0.15
623.627	0.15
623.963	0.15
624.298	0.15
624.633	0.15
624.968	0.15
625.304	0.15
625.639	0.15
625.974	0.14
626.309	0.15
626.644	0.15
626.979	0.16
627.313	0.15
627.648	0.16
627.983	0.15
628.318	0.14
628.652	0.15
628.987	0.15
629.321	0.16
629.656	0.14
629.99	0.14
630.325	0.15
630.659	0.15
630.993	0.14
631.327	0.15
631.662	0.14
631.996	0.14
632.33	0.14
632.664	0.14
632.998	0.14
633.332	0.14
633.666	0.14
633.999	0.14
634.333	0.14
634.667	0.14
635.001	0.13
635.334	0.14
635.668	0.13
636.001	0.13
636.335	0.14
636.668	0.14
637.001	0.13
637.335	0.13
637.668	0.13
638.001	0.13
638.334	0.14
638.668	0.13
639.001	0.14
639.334	0.13
639.667	0.13
639.999	0.13
640.332	0.13
640.665	0.13
640.998	0.14
641.331	0.15
641.663	0.13
641.996	0.14
642.328	0.14
642.661	0.14
642.993	0.14
643.326	0.14
643.658	0.13
643.99	0.13
644.323	0.13
644.655	0.13
644.987	0.13
645.319	0.14
645.651	0.14
645.983	0.14
646.315	0.13
646.647	0.14
646.979	0.14
647.31	0.14
647.642	0.14
647.974	0.13
648.305	0.14
648.637	0.14
648.968	0.14
649.3	0.14
649.631	0.14
649.963	0.14
650.294	0.14
650.625	0.14
650.957	0.14
651.288	0.14
651.619	0.14
651.95	0.14
652.281	0.14
652.612	0.13
652.943	0.14
653.274	0.13
653.604	0.13
653.935	0.14
654.266	0.13
654.596	0.13
654.927	0.13
655.258	0.14
655.588	0.14
655.918	0.13
656.249	0.12
656.579	0.12
656.909	0.13
657.24	0.12
657.57	0.13
657.9	0.14
658.23	0.13
658.56	0.14
658.89	0.14
659.22	0.13
659.55	0.14
659.88	0.13
660.209	0.13
660.539	0.14
660.869	0.14
661.198	0.13
661.528	0.13
661.857	0.13
662.187	0.13
662.516	0.13
662.846	0.13
663.175	0.13
663.504	0.13
663.833	0.13
664.163	0.13
664.492	0.13
664.821	0.12
665.15	0.13
665.479	0.12
665.807	0.12
666.136	0.12
666.465	0.12
666.794	0.12
667.122	0.12
667.451	0.13
667.78	0.13
668.108	0.12
668.437	0.12
668.765	0.12
669.093	0.12
669.422	0.12
669.75	0.12
670.078	0.12
670.406	0.12
670.734	0.13
671.062	0.12
671.39	0.12
671.718	0.12
672.046	0.12
672.374	0.12
672.702	0.12
673.029	0.11
673.357	0.12
673.685	0.12
674.012	0.12
674.34	0.12
674.667	0.12
674.995	0.12
675.322	0.13
675.649	0.12
675.977	0.11
676.304	0.12
676.631	0.11
676.958	0.11
677.285	0.1
677.612	0.1
677.939	0.11
678.266	0.11
678.593	0.11
678.92	0.11
679.246	0.1
679.573	0.1
679.9	0.1
680.226	0.11
680.553	0.1
680.879	0.11
681.206	0.1
681.532	0.1
681.858	0.1
682.184	0.1
682.511	0.1
682.837	0.1
683.163	0.11
683.489	0.1
683.815	0.1
684.141	0.11
684.467	0.1
684.793	0.1
685.118	0.1
685.444	0.11
685.77	0.1
686.095	0.11
686.421	0.1
686.746	0.11
687.072	0.11
687.397	0.1
687.723	0.11
688.048	0.11
688.373	0.1
688.698	0.1
689.023	0.1
689.349	0.1
689.674	0.1
689.999	0.1
690.323	0.09
690.648	0.09
690.973	0.09
691.298	0.09
691.623	0.09
691.947	0.09
692.272	0.09
692.596	0.1
692.921	0.09
693.245	0.09
693.57	0.09
693.894	0.09
694.218	0.09
694.543	0.09
694.867	0.09
695.191	0.09
695.515	0.09
695.839	0.08
696.163	0.08
696.487	0.09
696.811	0.09
697.135	0.09
697.458	0.09
697.782	0.1
698.106	0.09
698.429	0.09
698.753	0.09
699.076	0.09
699.4	0.08
699.723	0.09
700.046	0.08
700.37	0.1
700.693	0.1
701.016	0.09
701.339	0.1
701.662	0.1
701.985	0.09
702.308	0.09
702.631	0.1
702.954	0.1
703.277	0.09
703.599	0.09
703.922	0.08
704.245	0.08
704.567	0.08
704.89	0.09
705.212	0.09
705.535	0.08
705.857	0.07
706.179	0.07
706.502	0.08
706.824	0.07
707.146	0.08
707.468	0.08
707.79	0.08
708.112	0.08
708.434	0.08
708.756	0.08
709.078	0.08
709.399	0.07
709.721	0.07
710.043	0.08
710.364	0.07
710.686	0.07
711.007	0.08
711.329	0.08
711.65	0.07
711.972	0.07
712.293	0.07
712.614	0.07
712.935	0.08
713.256	0.07
713.577	0.08
713.898	0.08
714.219	0.08
714.54	0.07
714.861	0.07
715.182	0.08
715.503	0.08
715.823	0.08
716.144	0.07
716.464	0.07
716.785	0.07
717.105	0.08
717.426	0.08
717.746	0.07
718.066	0.07
718.387	0.07
718.707	0.07
719.027	0.07
719.347	0.06
719.667	0.07
719.987	0.06
720.307	0.06
720.627	0.07
720.947	0.06
721.266	0.06
721.586	0.06
721.906	0.07
722.225	0.06
722.545	0.06
722.864	0.06
723.184	0.07
723.503	0.06
723.823	0.07
724.142	0.06
