Data from 12-12-AQDScycling_Absorbance__289__00289.txt Node

Date: Tue Dec 12 12:08:59 EST 2023
User: kyuminlee
Spectrometer: FLMS00943
Trigger mode: 0
Integration Time (sec): 1.000000E-1
Scans to average: 1
Electric dark correction enabled: true
Nonlinearity correction enabled: false
Boxcar width: 0
XAxis mode: Wavelengths
Number of Pixels in Spectrum: 2048
>>>>>Begin Spectral Data<<<<<
179.651	0.24
180.037	0.24
180.424	0.24
180.81	0.66
181.197	0.33
181.583	-0.67
181.97	-0.31
182.356	-1.29
182.743	-1.5
183.129	0.11
183.515	-0
183.901	-0
184.288	0.23
184.674	-0.15
185.06	-1
185.446	-0.58
185.832	-1.36
186.218	-0
186.604	-0
186.99	-0.15
187.376	-0
187.762	0.62
188.148	0.19
188.534	-0.01
188.92	0.15
189.305	0.16
189.691	0.34
190.077	0.19
190.463	0.11
190.848	0.23
191.234	0.05
191.619	0.12
192.005	0.03
192.391	0.13
192.776	0.1
193.161	0.29
193.547	0.18
193.932	0.11
194.318	0.08
194.703	0.24
195.088	0.15
195.473	0.12
195.859	0.06
196.244	0.12
196.629	0.07
197.014	0.1
197.399	0.07
197.784	0.13
198.169	0.08
198.554	0.18
198.939	0.06
199.324	0.17
199.709	0.01
200.094	0.14
200.478	0.23
200.863	0.09
201.248	0.17
201.633	0.21
202.017	0.15
202.402	0.27
202.787	0.2
203.171	0.1
203.556	0.18
203.94	0.12
204.325	0.16
204.709	0.17
205.093	0.12
205.478	0.12
205.862	0.08
206.246	0.31
206.631	0.13
207.015	0.27
207.399	0.15
207.783	0.18
208.167	0.18
208.551	0.29
208.935	0.18
209.319	0.15
209.703	0.13
210.087	0.3
210.471	0.15
210.855	0.15
211.239	0.27
211.623	0.33
212.007	0.08
212.39	0.34
212.774	0.14
213.158	0.09
213.541	0.2
213.925	0.21
214.309	0.2
214.692	0.21
215.076	0.27
215.459	0.17
215.842	0.14
216.226	0.32
216.609	0.33
216.993	0.21
217.376	0.54
217.759	0.21
218.142	0.43
218.525	0.28
218.909	0.43
219.292	0.2
219.675	0.45
220.058	0.42
220.441	0.42
220.824	0.57
221.207	0.49
221.59	0.5
221.973	0.6
222.355	0.58
222.738	0.69
223.121	0.6
223.504	0.64
223.886	0.67
224.269	0.64
224.652	0.63
225.034	0.93
225.417	0.82
225.799	0.74
226.182	0.78
226.564	0.89
226.947	0.9
227.329	0.76
227.711	0.88
228.094	1.13
228.476	0.91
228.858	0.94
229.24	0.83
229.623	0.82
230.005	0.89
230.387	0.89
230.769	0.93
231.151	1.03
231.533	0.92
231.915	1.02
232.297	1.1
232.679	1.04
233.061	1.07
233.442	0.93
233.824	1.08
234.206	1.25
234.588	0.98
234.969	0.96
235.351	1.02
235.733	1.14
236.114	1.13
236.496	1.03
236.877	1.16
237.259	1.04
237.64	1.09
238.022	1.06
238.403	0.98
238.784	0.97
239.165	0.93
239.547	1.21
239.928	1.16
240.309	1.15
240.69	0.98
241.071	1.1
241.452	1.23
241.834	1.12
242.215	1.13
242.595	1.09
242.976	1.15
243.357	1.07
243.738	1.06
244.119	1.28
244.5	1.17
244.881	1.27
245.261	1.19
245.642	1.12
246.023	1.27
246.403	1.22
246.784	1.23
247.164	1.37
247.545	1.31
247.925	1.35
248.306	1.16
248.686	1.45
249.067	1.32
249.447	1.33
249.827	1.41
250.207	1.39
250.588	1.25
250.968	1.5
251.348	1.32
251.728	1.52
252.108	1.3
252.488	1.42
252.868	1.26
253.248	1.27
253.628	1.44
254.008	1.5
254.388	1.47
254.768	1.61
255.147	1.49
255.527	1.43
255.907	1.38
256.287	1.37
256.666	1.42
257.046	1.51
257.425	1.42
257.805	1.41
258.184	1.34
258.564	1.29
258.943	1.39
259.323	1.42
259.702	1.56
260.081	1.42
260.461	1.52
260.84	1.57
261.219	1.78
261.598	1.42
261.977	1.38
262.356	1.52
262.736	1.44
263.115	1.57
263.494	1.39
263.873	1.37
264.251	1.46
264.63	1.57
265.009	1.44
265.388	1.36
265.767	1.43
266.145	1.46
266.524	1.44
266.903	1.35
267.281	1.36
267.66	1.46
268.039	1.52
268.417	1.39
268.796	1.46
269.174	1.51
269.552	1.33
269.931	1.55
270.309	1.46
270.687	1.6
271.066	1.63
271.444	1.36
271.822	1.52
272.2	1.39
272.578	1.4
272.956	1.3
273.334	1.42
273.712	1.47
274.09	1.65
274.468	1.34
274.846	1.31
275.224	1.47
275.602	1.57
275.98	1.6
276.357	1.67
276.735	1.38
277.113	1.55
277.49	1.33
277.868	1.31
278.246	1.37
278.623	1.31
279.001	1.38
279.378	1.34
279.756	1.52
280.133	1.61
280.51	1.4
280.888	1.47
281.265	1.39
281.642	1.41
282.019	1.42
282.396	1.62
282.773	1.45
283.151	1.51
283.528	1.52
283.905	1.42
284.282	1.52
284.659	1.63
285.035	1.29
285.412	1.28
285.789	1.51
286.166	1.59
286.543	1.44
286.919	1.42
287.296	1.55
287.673	1.69
288.049	1.59
288.426	1.5
288.802	1.54
289.179	1.57
289.555	1.46
289.932	1.46
290.308	1.34
290.684	1.41
291.061	1.5
291.437	1.46
291.813	1.46
292.189	1.34
292.565	1.26
292.942	1.3
293.318	1.48
293.694	1.5
294.07	1.31
294.446	1.38
294.822	1.87
295.197	1.46
295.573	1.53
295.949	1.47
296.325	1.49
296.701	1.53
297.076	1.4
297.452	1.57
297.828	1.42
298.203	1.72
298.579	1.41
298.954	1.46
299.33	1.37
299.705	1.46
300.081	1.48
300.456	1.57
300.831	1.39
301.206	1.52
301.582	1.46
301.957	1.47
302.332	1.59
302.707	1.36
303.082	1.42
303.457	1.47
303.832	1.6
304.207	1.37
304.582	1.47
304.957	1.37
305.332	1.44
305.707	1.33
306.082	1.47
306.456	1.46
306.831	1.37
307.206	1.42
307.58	1.37
307.955	1.4
308.33	1.46
308.704	1.34
309.079	1.34
309.453	1.45
309.828	1.41
310.202	1.39
310.576	1.31
310.951	1.41
311.325	1.4
311.699	1.42
312.073	1.31
312.447	1.5
312.821	1.3
313.196	1.3
313.57	1.37
313.944	1.38
314.317	1.22
314.691	1.34
315.065	1.37
315.439	1.43
315.813	1.36
316.187	1.36
316.56	1.39
316.934	1.39
317.308	1.37
317.681	1.44
318.055	1.38
318.428	1.41
318.802	1.45
319.175	1.35
319.549	1.39
319.922	1.3
320.295	1.3
320.669	1.41
321.042	1.4
321.415	1.46
321.788	1.42
322.162	1.29
322.535	1.38
322.908	1.5
323.281	1.36
323.654	1.44
324.027	1.33
324.4	1.47
324.773	1.35
325.145	1.37
325.518	1.4
325.891	1.42
326.264	1.53
326.636	1.34
327.009	1.55
327.382	1.35
327.754	1.7
328.127	1.29
328.499	1.47
328.872	1.44
329.244	1.42
329.616	1.41
329.989	1.34
330.361	1.48
330.733	1.48
331.106	1.34
331.478	1.6
331.85	1.34
332.222	1.42
332.594	1.51
332.966	1.42
333.338	1.52
333.71	1.52
334.082	1.52
334.454	1.38
334.826	1.49
335.197	1.53
335.569	1.48
335.941	1.32
336.312	1.42
336.684	1.45
337.056	1.4
337.427	1.46
337.799	1.51
338.17	1.41
338.542	1.37
338.913	1.46
339.284	1.59
339.656	1.49
340.027	1.4
340.398	1.52
340.769	1.4
341.141	1.57
341.512	1.39
341.883	1.49
342.254	1.44
342.625	1.38
342.996	1.41
343.367	1.38
343.738	1.38
344.108	1.31
344.479	1.44
344.85	1.3
345.221	1.41
345.591	1.33
345.962	1.37
346.333	1.42
346.703	1.36
347.074	1.27
347.444	1.31
347.815	1.35
348.185	1.53
348.556	1.32
348.926	1.37
349.296	1.41
349.666	1.27
350.037	1.23
350.407	1.33
350.777	1.29
351.147	1.41
351.517	1.38
351.887	1.23
352.257	1.34
352.627	1.36
352.997	1.29
353.367	1.51
353.737	1.36
354.106	1.34
354.476	1.25
354.846	1.35
355.216	1.43
355.585	1.33
355.955	1.37
356.324	1.44
356.694	1.39
357.063	1.36
357.433	1.28
357.802	1.29
358.171	1.38
358.541	1.43
358.91	1.38
359.279	1.34
359.648	1.28
360.017	1.43
360.387	1.34
360.756	1.37
361.125	1.42
361.494	1.34
361.863	1.36
362.231	1.28
362.6	1.31
362.969	1.4
363.338	1.36
363.707	1.5
364.075	1.49
364.444	1.26
364.813	1.45
365.181	1.39
365.55	1.36
365.918	1.51
366.287	1.39
366.655	1.36
367.024	1.49
367.392	1.51
367.76	1.36
368.128	1.4
368.497	1.35
368.865	1.37
369.233	1.45
369.601	1.42
369.969	1.36
370.337	1.42
370.705	1.43
371.073	1.41
371.441	1.37
371.809	1.42
372.177	1.43
372.544	1.4
372.912	1.44
373.28	1.38
373.647	1.52
374.015	1.59
374.383	1.59
374.75	1.51
375.118	1.4
375.485	1.42
375.853	1.5
376.22	1.4
376.587	1.46
376.955	1.58
377.322	1.51
377.689	1.46
378.056	1.43
378.423	1.36
378.79	1.41
379.157	1.51
379.524	1.45
379.891	1.38
380.258	1.48
380.625	1.36
380.992	1.46
381.359	1.54
381.726	1.47
382.092	1.44
382.459	1.43
382.826	1.47
383.192	1.64
383.559	1.49
383.925	1.59
384.292	1.39
384.658	1.65
385.025	1.52
385.391	1.65
385.757	1.63
386.123	1.48
386.49	1.5
386.856	1.47
387.222	1.55
387.588	1.52
387.954	1.72
388.32	1.58
388.686	1.53
389.052	1.57
389.418	1.56
389.784	1.53
390.15	1.57
390.515	1.3
390.881	1.65
391.247	1.4
391.613	1.58
391.978	1.46
392.344	1.63
392.709	1.6
393.075	1.56
393.44	1.56
393.806	1.5
394.171	1.44
394.536	1.53
394.902	1.54
395.267	1.52
395.632	1.45
395.997	1.54
396.362	1.53
396.727	1.55
397.092	1.45
397.457	1.4
397.822	1.49
398.187	1.63
398.552	1.46
398.917	1.57
399.282	1.41
399.646	1.46
400.011	1.68
400.376	1.46
400.74	1.43
401.105	1.43
401.47	1.53
401.834	1.57
402.199	1.48
402.563	1.52
402.927	1.46
403.292	1.55
403.656	1.51
404.02	1.37
404.384	1.55
404.749	1.5
405.113	1.49
405.477	1.5
405.841	1.48
406.205	1.43
406.569	1.43
406.933	1.37
407.296	1.44
407.66	1.56
408.024	1.43
408.388	1.5
408.752	1.45
409.115	1.4
409.479	1.45
409.842	1.36
410.206	1.39
410.569	1.33
410.933	1.35
411.296	1.29
411.66	1.35
412.023	1.3
412.386	1.35
412.749	1.3
413.113	1.49
413.476	1.32
413.839	1.27
414.202	1.35
414.565	1.24
414.928	1.36
415.291	1.3
415.654	1.25
416.017	1.32
416.38	1.27
416.742	1.24
417.105	1.26
417.468	1.29
417.83	1.29
418.193	1.36
418.556	1.22
418.918	1.23
419.281	1.22
419.643	1.31
420.005	1.27
420.368	1.24
420.73	1.19
421.092	1.23
421.455	1.31
421.817	1.18
422.179	1.18
422.541	1.26
422.903	1.33
423.265	1.29
423.627	1.25
423.989	1.22
424.351	1.2
424.713	1.24
425.075	1.23
425.436	1.24
425.798	1.24
426.16	1.24
426.521	1.17
426.883	1.24
427.245	1.16
427.606	1.2
427.967	1.14
428.329	1.17
428.69	1.25
429.052	1.17
429.413	1.22
429.774	1.2
430.135	1.18
430.497	1.17
430.858	1.16
431.219	1.19
431.58	1.13
431.941	1.16
432.302	1.15
432.663	1.17
433.024	1.19
433.384	1.22
433.745	1.16
434.106	1.16
434.467	1.18
434.827	1.19
435.188	1.15
435.548	1.2
435.909	1.13
436.269	1.18
436.63	1.1
436.99	1.14
437.351	1.11
437.711	1.15
438.071	1.08
438.431	1.08
438.792	1.12
439.152	1.1
439.512	1.05
439.872	1.05
440.232	1.09
440.592	1.09
440.952	1.1
441.312	1.04
441.671	1.02
442.031	1.04
442.391	1.04
442.751	1.05
443.11	1.07
443.47	0.97
443.83	1
444.189	0.98
444.549	1.02
444.908	1.02
445.267	1.01
445.627	0.97
445.986	0.95
446.345	0.96
446.705	0.95
447.064	0.96
447.423	0.96
447.782	0.94
448.141	0.92
448.5	0.89
448.859	0.93
449.218	0.91
449.577	0.92
449.936	0.92
450.295	0.92
450.653	0.9
451.012	0.91
451.371	0.9
451.729	0.9
452.088	0.9
452.447	0.89
452.805	0.89
453.163	0.89
453.522	0.87
453.88	0.85
454.239	0.85
454.597	0.83
454.955	0.83
455.313	0.82
455.671	0.84
456.029	0.82
456.388	0.8
456.746	0.79
457.104	0.79
457.461	0.78
457.819	0.78
458.177	0.76
458.535	0.75
458.893	0.75
459.25	0.75
459.608	0.74
459.966	0.71
460.323	0.71
460.681	0.69
461.038	0.69
461.396	0.69
461.753	0.68
462.111	0.68
462.468	0.66
462.825	0.65
463.182	0.65
463.54	0.63
463.897	0.63
464.254	0.62
464.611	0.62
464.968	0.61
465.325	0.61
465.682	0.59
466.039	0.59
466.395	0.57
466.752	0.57
467.109	0.58
467.466	0.56
467.822	0.56
468.179	0.53
468.535	0.55
468.892	0.53
469.248	0.52
469.605	0.51
469.961	0.51
470.318	0.51
470.674	0.51
471.03	0.49
471.386	0.5
471.743	0.48
472.099	0.47
472.455	0.47
472.811	0.46
473.167	0.45
473.523	0.44
473.879	0.44
474.235	0.43
474.59	0.43
474.946	0.42
475.302	0.42
475.657	0.4
476.013	0.41
476.369	0.39
476.724	0.4
477.08	0.39
477.435	0.4
477.791	0.38
478.146	0.38
478.501	0.37
478.857	0.37
479.212	0.37
479.567	0.36
479.922	0.35
480.277	0.34
480.632	0.34
480.987	0.34
481.342	0.33
481.697	0.33
482.052	0.32
482.407	0.32
482.762	0.32
483.116	0.31
483.471	0.31
483.826	0.3
484.18	0.3
484.535	0.29
484.89	0.29
485.244	0.29
485.598	0.29
485.953	0.28
486.307	0.28
486.661	0.28
487.016	0.27
487.37	0.27
487.724	0.27
488.078	0.27
488.432	0.27
488.786	0.26
489.14	0.26
489.494	0.25
489.848	0.25
490.202	0.24
490.556	0.24
490.91	0.24
491.263	0.24
491.617	0.24
491.971	0.24
492.324	0.23
492.678	0.24
493.031	0.23
493.385	0.23
493.738	0.23
494.091	0.23
494.445	0.23
494.798	0.22
495.151	0.22
495.504	0.21
495.857	0.21
496.21	0.21
496.564	0.21
496.916	0.22
497.269	0.21
497.622	0.21
497.975	0.21
498.328	0.22
498.681	0.2
499.033	0.2
499.386	0.21
499.739	0.2
500.091	0.2
500.444	0.19
500.796	0.2
501.149	0.19
501.501	0.19
501.854	0.19
502.206	0.19
502.558	0.19
502.91	0.19
503.263	0.19
503.615	0.19
503.967	0.18
504.319	0.18
504.671	0.19
505.023	0.18
505.375	0.19
505.726	0.18
506.078	0.17
506.43	0.17
506.782	0.18
507.133	0.18
507.485	0.18
507.837	0.19
508.188	0.18
508.54	0.18
508.891	0.18
509.243	0.17
509.594	0.18
509.945	0.17
510.296	0.18
510.648	0.18
510.999	0.17
511.35	0.17
511.701	0.18
512.052	0.18
512.403	0.18
512.754	0.17
513.105	0.17
513.456	0.16
513.807	0.17
514.157	0.17
514.508	0.17
514.859	0.17
515.209	0.17
515.56	0.18
515.91	0.16
516.261	0.17
516.611	0.17
516.962	0.17
517.312	0.17
517.662	0.17
518.013	0.17
518.363	0.17
518.713	0.17
519.063	0.17
519.413	0.17
519.763	0.16
520.113	0.17
520.463	0.17
520.813	0.16
521.163	0.17
521.512	0.17
521.862	0.17
522.212	0.17
522.562	0.17
522.911	0.17
523.261	0.17
523.61	0.17
523.96	0.16
524.309	0.17
524.658	0.17
525.008	0.16
525.357	0.17
525.706	0.17
526.056	0.17
526.405	0.17
526.754	0.17
527.103	0.17
527.452	0.17
527.801	0.17
528.15	0.17
528.499	0.16
528.847	0.17
529.196	0.18
529.545	0.17
529.893	0.17
530.242	0.17
530.591	0.17
530.939	0.18
531.288	0.18
531.636	0.18
531.985	0.18
532.333	0.17
532.681	0.17
533.029	0.18
533.378	0.18
533.726	0.18
534.074	0.18
534.422	0.17
534.77	0.18
535.118	0.17
535.466	0.18
535.814	0.17
536.162	0.18
536.509	0.18
536.857	0.17
537.205	0.18
537.552	0.18
537.9	0.18
538.248	0.17
538.595	0.18
538.943	0.18
539.29	0.18
539.637	0.18
539.985	0.18
540.332	0.18
540.679	0.17
541.026	0.17
541.373	0.18
541.721	0.17
542.068	0.17
542.415	0.17
542.762	0.17
543.108	0.16
543.455	0.16
543.802	0.16
544.149	0.17
544.496	0.17
544.842	0.16
545.189	0.16
545.535	0.17
545.882	0.17
546.228	0.17
546.575	0.16
546.921	0.17
547.267	0.17
547.614	0.17
547.96	0.17
548.306	0.16
548.652	0.17
548.998	0.16
549.344	0.17
549.69	0.17
550.036	0.17
550.382	0.17
550.728	0.17
551.074	0.18
551.42	0.17
551.765	0.18
552.111	0.18
552.457	0.17
552.802	0.17
553.148	0.17
553.493	0.17
553.839	0.18
554.184	0.18
554.529	0.17
554.875	0.18
555.22	0.18
555.565	0.18
555.91	0.18
556.255	0.19
556.6	0.19
556.945	0.17
557.29	0.17
557.635	0.18
557.98	0.18
558.325	0.18
558.67	0.18
559.014	0.17
559.359	0.18
559.704	0.18
560.048	0.17
560.393	0.18
560.737	0.17
561.082	0.18
561.426	0.17
561.77	0.17
562.115	0.17
562.459	0.17
562.803	0.17
563.147	0.16
563.491	0.18
563.835	0.17
564.179	0.18
564.523	0.17
564.867	0.17
565.211	0.17
565.555	0.17
565.899	0.18
566.242	0.17
566.586	0.17
566.93	0.17
567.273	0.18
567.617	0.18
567.96	0.18
568.304	0.18
568.647	0.17
568.99	0.18
569.334	0.19
569.677	0.18
570.02	0.19
570.363	0.18
570.706	0.17
571.049	0.18
571.392	0.18
571.735	0.17
572.078	0.18
572.421	0.18
572.764	0.18
573.106	0.18
573.449	0.17
573.792	0.18
574.134	0.17
574.477	0.18
574.819	0.18
575.162	0.18
575.504	0.17
575.847	0.17
576.189	0.18
576.531	0.18
576.873	0.18
577.215	0.18
577.558	0.18
577.9	0.17
578.242	0.18
578.584	0.17
578.926	0.18
579.267	0.18
579.609	0.18
579.951	0.18
580.293	0.18
580.634	0.18
580.976	0.18
581.318	0.17
581.659	0.17
582.001	0.18
582.342	0.17
582.683	0.18
583.025	0.17
583.366	0.17
583.707	0.19
584.049	0.18
584.39	0.17
584.731	0.17
585.072	0.17
585.413	0.18
585.754	0.18
586.095	0.18
586.435	0.18
586.776	0.18
587.117	0.17
587.458	0.17
587.798	0.17
588.139	0.17
588.48	0.17
588.82	0.17
589.161	0.17
589.501	0.17
589.841	0.17
590.182	0.17
590.522	0.17
590.862	0.18
591.202	0.17
591.542	0.17
591.882	0.17
592.222	0.16
592.562	0.17
592.902	0.17
593.242	0.16
593.582	0.18
593.922	0.17
594.261	0.17
594.601	0.17
594.941	0.17
595.28	0.17
595.62	0.18
595.959	0.17
596.299	0.17
596.638	0.17
596.977	0.17
597.317	0.18
597.656	0.17
597.995	0.17
598.334	0.18
598.673	0.17
599.012	0.17
599.351	0.18
599.69	0.16
600.029	0.17
600.368	0.18
600.707	0.17
601.046	0.17
601.384	0.17
601.723	0.18
602.061	0.16
602.4	0.17
602.738	0.17
603.077	0.18
603.415	0.17
603.754	0.17
604.092	0.17
604.43	0.16
604.768	0.17
605.107	0.17
605.445	0.17
605.783	0.17
606.121	0.17
606.459	0.17
606.796	0.17
607.134	0.17
607.472	0.17
607.81	0.17
608.148	0.16
608.485	0.18
608.823	0.17
609.16	0.16
609.498	0.17
609.835	0.17
610.173	0.16
610.51	0.17
610.847	0.18
611.185	0.17
611.522	0.17
611.859	0.17
612.196	0.17
612.533	0.18
612.87	0.18
613.207	0.18
613.544	0.17
613.881	0.18
614.217	0.18
614.554	0.17
614.891	0.17
615.228	0.17
615.564	0.17
615.901	0.18
616.237	0.17
616.574	0.17
616.91	0.17
617.246	0.17
617.583	0.18
617.919	0.18
618.255	0.18
618.591	0.18
618.927	0.17
619.263	0.19
619.599	0.18
619.935	0.17
620.271	0.18
620.607	0.17
620.943	0.17
621.279	0.18
621.614	0.17
621.95	0.17
622.286	0.17
622.621	0.16
622.957	0.17
623.292	0.16
623.627	0.16
623.963	0.16
624.298	0.17
624.633	0.16
624.968	0.16
625.304	0.16
625.639	0.16
625.974	0.16
626.309	0.15
626.644	0.16
626.979	0.16
627.313	0.16
627.648	0.15
627.983	0.16
628.318	0.15
628.652	0.15
628.987	0.15
629.321	0.15
629.656	0.15
629.99	0.15
630.325	0.16
630.659	0.15
630.993	0.15
631.327	0.15
631.662	0.15
631.996	0.15
632.33	0.15
632.664	0.15
632.998	0.15
633.332	0.15
633.666	0.15
633.999	0.15
634.333	0.15
634.667	0.15
635.001	0.15
635.334	0.15
635.668	0.15
636.001	0.15
636.335	0.15
636.668	0.15
637.001	0.14
637.335	0.14
637.668	0.15
638.001	0.15
638.334	0.15
638.668	0.14
639.001	0.14
639.334	0.14
639.667	0.13
639.999	0.13
640.332	0.14
640.665	0.13
640.998	0.14
641.331	0.14
641.663	0.14
641.996	0.13
642.328	0.14
642.661	0.13
642.993	0.14
643.326	0.14
643.658	0.14
643.99	0.13
644.323	0.14
644.655	0.13
644.987	0.14
645.319	0.14
645.651	0.14
645.983	0.14
646.315	0.13
646.647	0.14
646.979	0.14
647.31	0.15
647.642	0.14
647.974	0.14
648.305	0.15
648.637	0.14
648.968	0.14
649.3	0.14
649.631	0.15
649.963	0.14
650.294	0.15
650.625	0.15
650.957	0.15
651.288	0.15
651.619	0.14
651.95	0.15
652.281	0.14
652.612	0.14
652.943	0.15
653.274	0.15
653.604	0.14
653.935	0.14
654.266	0.16
654.596	0.14
654.927	0.14
655.258	0.14
655.588	0.15
655.918	0.14
656.249	0.12
656.579	0.14
656.909	0.13
657.24	0.13
657.57	0.14
657.9	0.14
658.23	0.14
658.56	0.14
658.89	0.15
659.22	0.14
659.55	0.14
659.88	0.15
660.209	0.15
660.539	0.16
660.869	0.15
661.198	0.15
661.528	0.15
661.857	0.14
662.187	0.15
662.516	0.14
662.846	0.15
663.175	0.14
663.504	0.14
663.833	0.14
664.163	0.14
664.492	0.14
664.821	0.14
665.15	0.14
665.479	0.13
665.807	0.13
666.136	0.14
666.465	0.13
666.794	0.13
667.122	0.13
667.451	0.14
667.78	0.13
668.108	0.14
668.437	0.12
668.765	0.13
669.093	0.13
669.422	0.13
669.75	0.13
670.078	0.13
670.406	0.14
670.734	0.13
671.062	0.13
671.39	0.13
671.718	0.14
672.046	0.14
672.374	0.13
672.702	0.13
673.029	0.13
673.357	0.13
673.685	0.14
674.012	0.13
674.34	0.13
674.667	0.13
674.995	0.13
675.322	0.13
675.649	0.13
675.977	0.13
676.304	0.13
676.631	0.13
676.958	0.13
677.285	0.12
677.612	0.12
677.939	0.13
678.266	0.13
678.593	0.13
678.92	0.12
679.246	0.12
679.573	0.12
679.9	0.12
680.226	0.12
680.553	0.12
680.879	0.12
681.206	0.12
681.532	0.11
681.858	0.11
682.184	0.12
682.511	0.12
682.837	0.11
683.163	0.12
683.489	0.11
683.815	0.11
684.141	0.11
684.467	0.12
684.793	0.11
685.118	0.11
685.444	0.12
685.77	0.12
686.095	0.12
686.421	0.12
686.746	0.12
687.072	0.12
687.397	0.12
687.723	0.12
688.048	0.12
688.373	0.11
688.698	0.11
689.023	0.12
689.349	0.12
689.674	0.12
689.999	0.12
690.323	0.11
690.648	0.11
690.973	0.11
691.298	0.11
691.623	0.11
691.947	0.11
692.272	0.11
692.596	0.11
692.921	0.11
693.245	0.1
693.57	0.11
693.894	0.11
694.218	0.1
694.543	0.11
694.867	0.11
695.191	0.1
695.515	0.11
695.839	0.1
696.163	0.1
696.487	0.11
696.811	0.1
697.135	0.11
697.458	0.11
697.782	0.11
698.106	0.1
698.429	0.11
698.753	0.11
699.076	0.1
699.4	0.1
699.723	0.1
700.046	0.1
700.37	0.11
700.693	0.11
701.016	0.11
701.339	0.11
701.662	0.11
701.985	0.11
702.308	0.11
702.631	0.11
702.954	0.1
703.277	0.11
703.599	0.11
703.922	0.1
704.245	0.09
704.567	0.1
704.89	0.09
705.212	0.1
705.535	0.09
705.857	0.09
706.179	0.09
706.502	0.1
706.824	0.08
707.146	0.09
707.468	0.09
707.79	0.1
708.112	0.09
708.434	0.09
708.756	0.1
709.078	0.1
709.399	0.09
709.721	0.09
710.043	0.1
710.364	0.09
710.686	0.1
711.007	0.1
711.329	0.1
711.65	0.09
711.972	0.1
712.293	0.09
712.614	0.1
712.935	0.1
713.256	0.09
713.577	0.11
713.898	0.09
714.219	0.09
714.54	0.09
714.861	0.09
715.182	0.09
715.503	0.09
715.823	0.09
716.144	0.08
716.464	0.09
716.785	0.08
717.105	0.09
717.426	0.09
717.746	0.08
718.066	0.08
718.387	0.08
718.707	0.07
719.027	0.08
719.347	0.07
719.667	0.07
719.987	0.07
720.307	0.07
720.627	0.07
720.947	0.07
721.266	0.07
721.586	0.06
721.906	0.07
722.225	0.07
722.545	0.07
722.864	0.06
723.184	0.07
