Data from 12-12-AQDScycling_Absorbance__618__00618.txt Node

Date: Tue Dec 12 13:31:14 EST 2023
User: kyuminlee
Spectrometer: FLMS00943
Trigger mode: 0
Integration Time (sec): 1.000000E-1
Scans to average: 1
Electric dark correction enabled: true
Nonlinearity correction enabled: false
Boxcar width: 0
XAxis mode: Wavelengths
Number of Pixels in Spectrum: 2048
>>>>>Begin Spectral Data<<<<<
179.651	-0.12
180.037	-0.12
180.424	-0.12
180.81	0.4
181.197	0.97
181.583	-0
181.97	-0.48
182.356	-0.73
182.743	-0
183.129	0.33
183.515	0.47
183.901	-0
184.288	0.44
184.674	0.49
185.06	-0.76
185.446	-0.49
185.832	-1.24
186.218	0.03
186.604	-0.28
186.99	-0
187.376	-0
187.762	-0
188.148	0.35
188.534	-0.06
188.92	0.21
189.305	0.11
189.691	0.28
190.077	0.23
190.463	0.29
190.848	0.08
191.234	-0.04
191.619	0.05
192.005	0.23
192.391	0.2
192.776	0.11
193.161	0.07
193.547	0.21
193.932	0.01
194.318	0.06
194.703	0.23
195.088	0.22
195.473	0.01
195.859	0.15
196.244	0.22
196.629	0.23
197.014	0.12
197.399	0.18
197.784	0.09
198.169	0.48
198.554	0.27
198.939	0.17
199.324	0.11
199.709	0.05
200.094	0.1
200.478	0.16
200.863	0.1
201.248	0.16
201.633	0.25
202.017	0.12
202.402	0.2
202.787	0.2
203.171	0.17
203.556	0.12
203.94	0.16
204.325	0.21
204.709	0.15
205.093	0.08
205.478	0.09
205.862	0.19
206.246	0.24
206.631	0.2
207.015	0.13
207.399	0.34
207.783	0.11
208.167	0.25
208.551	0.19
208.935	0.31
209.319	0.14
209.703	0.28
210.087	0.21
210.471	0.13
210.855	0.19
211.239	0.17
211.623	0.27
212.007	0.25
212.39	0.37
212.774	0.25
213.158	0.09
213.541	0.23
213.925	0.29
214.309	0.32
214.692	0.27
215.076	0.24
215.459	0.17
215.842	0.14
216.226	0.45
216.609	0.39
216.993	0.2
217.376	0.35
217.759	0.24
218.142	0.36
218.525	0.43
218.909	0.52
219.292	0.37
219.675	0.23
220.058	0.5
220.441	0.55
220.824	0.48
221.207	0.56
221.59	0.53
221.973	0.45
222.355	0.6
222.738	0.69
223.121	0.66
223.504	0.58
223.886	0.58
224.269	0.73
224.652	0.77
225.034	0.76
225.417	0.85
225.799	0.72
226.182	0.87
226.564	0.71
226.947	0.74
227.329	0.78
227.711	0.81
228.094	0.95
228.476	0.86
228.858	0.73
229.24	0.77
229.623	0.95
230.005	0.77
230.387	0.88
230.769	0.89
231.151	0.9
231.533	0.93
231.915	0.99
232.297	0.99
232.679	0.97
233.061	1.1
233.442	1.02
233.824	1.19
234.206	1.13
234.588	1.06
234.969	1.09
235.351	0.98
235.733	1.09
236.114	1.05
236.496	1.04
236.877	1.13
237.259	1
237.64	1.11
238.022	1.02
238.403	1.03
238.784	0.92
239.165	0.98
239.547	0.94
239.928	1.35
240.309	1.08
240.69	1.12
241.071	1.14
241.452	1.15
241.834	1
242.215	1.08
242.595	1.07
242.976	1.21
243.357	1.03
243.738	0.91
244.119	1.28
244.5	1.08
244.881	1.22
245.261	1.23
245.642	1.2
246.023	1.12
246.403	1.17
246.784	1.28
247.164	1.32
247.545	1.33
247.925	1.37
248.306	1.14
248.686	1.54
249.067	1.25
249.447	1.43
249.827	1.52
250.207	1.32
250.588	1.35
250.968	1.44
251.348	1.41
251.728	1.34
252.108	1.36
252.488	1.39
252.868	1.38
253.248	1.46
253.628	1.4
254.008	1.42
254.388	1.3
254.768	1.31
255.147	1.39
255.527	1.36
255.907	1.39
256.287	1.31
256.666	1.43
257.046	1.47
257.425	1.35
257.805	1.34
258.184	1.25
258.564	1.38
258.943	1.34
259.323	1.49
259.702	1.54
260.081	1.46
260.461	1.43
260.84	1.41
261.219	1.65
261.598	1.51
261.977	1.5
262.356	1.45
262.736	1.48
263.115	1.74
263.494	1.43
263.873	1.52
264.251	1.42
264.63	1.39
265.009	1.45
265.388	1.33
265.767	1.34
266.145	1.37
266.524	1.42
266.903	1.44
267.281	1.3
267.66	1.52
268.039	1.46
268.417	1.58
268.796	1.5
269.174	1.42
269.552	1.33
269.931	1.33
270.309	1.4
270.687	1.5
271.066	1.91
271.444	1.35
271.822	1.52
272.2	1.41
272.578	1.52
272.956	1.38
273.334	1.35
273.712	1.46
274.09	1.49
274.468	1.41
274.846	1.29
275.224	1.47
275.602	1.33
275.98	1.57
276.357	1.42
276.735	1.46
277.113	1.29
277.49	1.41
277.868	1.26
278.246	1.52
278.623	1.43
279.001	1.28
279.378	1.48
279.756	1.53
280.133	1.61
280.51	1.4
280.888	1.36
281.265	1.49
281.642	1.54
282.019	1.54
282.396	1.62
282.773	1.42
283.151	1.61
283.528	1.54
283.905	1.5
284.282	1.5
284.659	1.52
285.035	1.38
285.412	1.34
285.789	1.6
286.166	1.5
286.543	1.45
286.919	1.55
287.296	1.38
287.673	1.67
288.049	1.52
288.426	1.68
288.802	1.42
289.179	1.39
289.555	1.54
289.932	1.53
290.308	1.32
290.684	1.48
291.061	1.35
291.437	1.41
291.813	1.33
292.189	1.36
292.565	1.43
292.942	1.45
293.318	1.33
293.694	1.42
294.07	1.34
294.446	1.45
294.822	1.5
295.197	1.34
295.573	1.46
295.949	1.56
296.325	1.43
296.701	1.53
297.076	1.59
297.452	1.6
297.828	1.33
298.203	1.5
298.579	1.36
298.954	1.42
299.33	1.32
299.705	1.3
300.081	1.38
300.456	1.4
300.831	1.3
301.206	1.26
301.582	1.33
301.957	1.25
302.332	1.29
302.707	1.2
303.082	1.19
303.457	1.23
303.832	1.18
304.207	1.18
304.582	1.13
304.957	1.14
305.332	1.18
305.707	1.1
306.082	1.1
306.456	1.14
306.831	1.09
307.206	1.05
307.58	1.04
307.955	1.01
308.33	1.07
308.704	1.02
309.079	0.97
309.453	0.97
309.828	0.96
310.202	0.91
310.576	0.92
310.951	0.96
311.325	0.9
311.699	0.9
312.073	0.89
312.447	0.88
312.821	0.88
313.196	0.88
313.57	0.84
313.944	0.84
314.317	0.8
314.691	0.87
315.065	0.83
315.439	0.84
315.813	0.83
316.187	0.82
316.56	0.83
316.934	0.83
317.308	0.75
317.681	0.82
318.055	0.81
318.428	0.78
318.802	0.79
319.175	0.75
319.549	0.78
319.922	0.78
320.295	0.78
320.669	0.8
321.042	0.78
321.415	0.82
321.788	0.78
322.162	0.74
322.535	0.76
322.908	0.75
323.281	0.75
323.654	0.77
324.027	0.74
324.4	0.78
324.773	0.76
325.145	0.78
325.518	0.77
325.891	0.75
326.264	0.78
326.636	0.74
327.009	0.73
327.382	0.74
327.754	0.78
328.127	0.77
328.499	0.81
328.872	0.77
329.244	0.79
329.616	0.81
329.989	0.83
330.361	0.83
330.733	0.77
331.106	0.76
331.478	0.81
331.85	0.79
332.222	0.8
332.594	0.83
332.966	0.82
333.338	0.88
333.71	0.84
334.082	0.88
334.454	0.86
334.826	0.88
335.197	0.89
335.569	0.87
335.941	0.85
336.312	0.91
336.684	0.92
337.056	0.9
337.427	0.95
337.799	0.98
338.17	0.98
338.542	0.93
338.913	0.99
339.284	1
339.656	0.95
340.027	0.98
340.398	0.99
340.769	0.98
341.141	1.04
341.512	1
341.883	1.03
342.254	1.01
342.625	0.99
342.996	1.02
343.367	1.05
343.738	1.05
344.108	1.07
344.479	1.1
344.85	1.01
345.221	1.13
345.591	1.11
345.962	1.1
346.333	1.13
346.703	1.02
347.074	1.14
347.444	1.13
347.815	1.17
348.185	1.13
348.556	1.07
348.926	1.19
349.296	1.14
349.666	1.2
350.037	1.13
350.407	1.12
350.777	1.17
351.147	1.19
351.517	1.25
351.887	1.22
352.257	1.36
352.627	1.22
352.997	1.32
353.367	1.26
353.737	1.38
354.106	1.29
354.476	1.36
354.846	1.54
355.216	1.43
355.585	1.49
355.955	1.42
356.324	1.43
356.694	1.47
357.063	1.42
357.433	1.41
357.802	1.54
358.171	1.5
358.541	1.48
358.91	1.49
359.279	1.54
359.648	1.34
360.017	1.57
360.387	1.56
360.756	1.5
361.125	1.51
361.494	1.71
361.863	1.47
362.231	1.42
362.6	1.63
362.969	1.5
363.338	1.44
363.707	1.73
364.075	1.75
364.444	1.48
364.813	1.59
365.181	1.43
365.55	1.53
365.918	1.59
366.287	1.4
366.655	1.58
367.024	1.56
367.392	1.69
367.76	1.41
368.128	1.55
368.497	1.56
368.865	1.48
369.233	1.5
369.601	1.67
369.969	1.69
370.337	1.63
370.705	1.57
371.073	1.65
371.441	1.49
371.809	1.55
372.177	1.44
372.544	1.52
372.912	1.58
373.28	1.46
373.647	1.57
374.015	1.71
374.383	1.89
374.75	1.74
375.118	1.64
375.485	1.68
375.853	1.65
376.22	1.49
376.587	1.53
376.955	1.61
377.322	1.71
377.689	1.59
378.056	1.59
378.423	1.46
378.79	1.66
379.157	1.57
379.524	1.65
379.891	1.47
380.258	1.65
380.625	1.66
380.992	1.43
381.359	1.67
381.726	1.84
382.092	1.44
382.459	1.51
382.826	1.53
383.192	1.51
383.559	1.5
383.925	1.71
384.292	1.4
384.658	1.68
385.025	1.56
385.391	1.76
385.757	1.66
386.123	1.54
386.49	1.58
386.856	1.48
387.222	1.65
387.588	1.42
387.954	1.67
388.32	1.67
388.686	1.7
389.052	1.54
389.418	1.64
389.784	1.56
390.15	1.7
390.515	1.44
390.881	1.89
391.247	1.49
391.613	1.63
391.978	1.56
392.344	1.7
392.709	1.47
393.075	1.6
393.44	1.66
393.806	1.56
394.171	1.51
394.536	1.5
394.902	1.58
395.267	1.66
395.632	1.46
395.997	1.57
396.362	1.58
396.727	1.54
397.092	1.57
397.457	1.53
397.822	1.45
398.187	1.51
398.552	1.57
398.917	1.66
399.282	1.48
399.646	1.55
400.011	1.7
400.376	1.48
400.74	1.56
401.105	1.51
401.47	1.48
401.834	1.54
402.199	1.49
402.563	1.53
402.927	1.48
403.292	1.61
403.656	1.68
404.02	1.59
404.384	1.69
404.749	1.51
405.113	1.71
405.477	1.76
405.841	1.46
406.205	1.66
406.569	1.55
406.933	1.68
407.296	1.63
407.66	1.49
408.024	1.59
408.388	1.54
408.752	1.53
409.115	1.67
409.479	1.88
409.842	1.66
410.206	1.62
410.569	1.63
410.933	1.47
411.296	1.44
411.66	1.53
412.023	1.48
412.386	1.56
412.749	1.49
413.113	1.56
413.476	1.57
413.839	1.56
414.202	1.55
414.565	1.36
414.928	1.47
415.291	1.37
415.654	1.45
416.017	1.62
416.38	1.38
416.742	1.51
417.105	1.51
417.468	1.56
417.83	1.57
418.193	1.69
418.556	1.49
418.918	1.43
419.281	1.65
419.643	1.62
420.005	1.5
420.368	1.5
420.73	1.47
421.092	1.69
421.455	1.59
421.817	1.4
422.179	1.45
422.541	1.54
422.903	1.59
423.265	1.55
423.627	1.64
423.989	1.59
424.351	1.41
424.713	1.57
425.075	1.6
425.436	1.56
425.798	1.55
426.16	1.68
426.521	1.57
426.883	1.45
427.245	1.56
427.606	1.54
427.967	1.44
428.329	1.58
428.69	1.56
429.052	1.4
429.413	1.55
429.774	1.51
430.135	1.65
430.497	1.56
430.858	1.5
431.219	1.62
431.58	1.54
431.941	1.5
432.302	1.41
432.663	1.56
433.024	1.57
433.384	1.68
433.745	1.46
434.106	1.59
434.467	1.62
434.827	1.57
435.188	1.6
435.548	1.61
435.909	1.43
436.269	1.52
436.63	1.5
436.99	1.56
437.351	1.39
437.711	1.49
438.071	1.45
438.431	1.51
438.792	1.52
439.152	1.42
439.512	1.47
439.872	1.49
440.232	1.4
440.592	1.46
440.952	1.49
441.312	1.39
441.671	1.46
442.031	1.52
442.391	1.38
442.751	1.53
443.11	1.39
443.47	1.43
443.83	1.42
444.189	1.43
444.549	1.43
444.908	1.38
445.267	1.41
445.627	1.36
445.986	1.4
446.345	1.31
446.705	1.39
447.064	1.47
447.423	1.35
447.782	1.38
448.141	1.35
448.5	1.33
448.859	1.28
449.218	1.42
449.577	1.37
449.936	1.34
450.295	1.35
450.653	1.31
451.012	1.3
451.371	1.3
451.729	1.3
452.088	1.33
452.447	1.31
452.805	1.24
453.163	1.27
453.522	1.24
453.88	1.26
454.239	1.19
454.597	1.19
454.955	1.2
455.313	1.2
455.671	1.19
456.029	1.18
456.388	1.13
456.746	1.15
457.104	1.13
457.461	1.12
457.819	1.12
458.177	1.08
458.535	1.08
458.893	1.07
459.25	1.06
459.608	1.04
459.966	1.04
460.323	1
460.681	0.99
461.038	0.98
461.396	0.97
461.753	0.95
462.111	0.95
462.468	0.92
462.825	0.91
463.182	0.91
463.54	0.87
463.897	0.89
464.254	0.87
464.611	0.85
464.968	0.84
465.325	0.83
465.682	0.83
466.039	0.82
466.395	0.8
466.752	0.78
467.109	0.78
467.466	0.76
467.822	0.76
468.179	0.74
468.535	0.71
468.892	0.71
469.248	0.71
469.605	0.69
469.961	0.67
470.318	0.69
470.674	0.66
471.03	0.65
471.386	0.64
471.743	0.62
472.099	0.61
472.455	0.61
472.811	0.61
473.167	0.59
473.523	0.57
473.879	0.58
474.235	0.55
474.59	0.54
474.946	0.54
475.302	0.53
475.657	0.51
476.013	0.51
476.369	0.49
476.724	0.49
477.08	0.48
477.435	0.47
477.791	0.46
478.146	0.46
478.501	0.45
478.857	0.44
479.212	0.43
479.567	0.41
479.922	0.41
480.277	0.4
480.632	0.39
480.987	0.39
481.342	0.39
481.697	0.37
482.052	0.36
482.407	0.36
482.762	0.35
483.116	0.35
483.471	0.33
483.826	0.33
484.18	0.32
484.535	0.31
484.89	0.31
485.244	0.31
485.598	0.3
485.953	0.29
486.307	0.29
486.661	0.28
487.016	0.27
487.37	0.28
487.724	0.27
488.078	0.26
488.432	0.26
488.786	0.26
489.14	0.25
489.494	0.24
489.848	0.23
490.202	0.24
490.556	0.23
490.91	0.23
491.263	0.22
491.617	0.22
491.971	0.21
492.324	0.21
492.678	0.21
493.031	0.21
493.385	0.2
493.738	0.2
494.091	0.19
494.445	0.19
494.798	0.18
495.151	0.18
495.504	0.18
495.857	0.17
496.21	0.17
496.564	0.17
496.916	0.17
497.269	0.16
497.622	0.16
497.975	0.15
498.328	0.15
498.681	0.14
499.033	0.15
499.386	0.14
499.739	0.14
500.091	0.15
500.444	0.14
500.796	0.15
501.149	0.14
501.501	0.14
501.854	0.13
502.206	0.13
502.558	0.13
502.91	0.13
503.263	0.12
503.615	0.12
503.967	0.13
504.319	0.12
504.671	0.13
505.023	0.12
505.375	0.12
505.726	0.11
506.078	0.11
506.43	0.11
506.782	0.11
507.133	0.11
507.485	0.11
507.837	0.12
508.188	0.11
508.54	0.11
508.891	0.11
509.243	0.1
509.594	0.1
509.945	0.1
510.296	0.1
510.648	0.09
510.999	0.09
511.35	0.1
511.701	0.09
512.052	0.1
512.403	0.1
512.754	0.09
513.105	0.09
513.456	0.09
513.807	0.09
514.157	0.1
514.508	0.1
514.859	0.08
515.209	0.09
515.56	0.1
515.91	0.08
516.261	0.09
516.611	0.09
516.962	0.09
517.312	0.09
517.662	0.09
518.013	0.09
518.363	0.1
518.713	0.09
519.063	0.09
519.413	0.08
519.763	0.09
520.113	0.08
520.463	0.09
520.813	0.1
521.163	0.09
521.512	0.08
521.862	0.09
522.212	0.09
522.562	0.09
522.911	0.09
523.261	0.09
523.61	0.09
523.96	0.09
524.309	0.09
524.658	0.09
525.008	0.08
525.357	0.08
525.706	0.09
526.056	0.08
526.405	0.08
526.754	0.08
527.103	0.08
527.452	0.08
527.801	0.09
528.15	0.08
528.499	0.08
528.847	0.09
529.196	0.09
529.545	0.09
529.893	0.09
530.242	0.09
530.591	0.09
530.939	0.1
531.288	0.09
531.636	0.09
531.985	0.09
532.333	0.09
532.681	0.09
533.029	0.09
533.378	0.09
533.726	0.08
534.074	0.1
534.422	0.08
534.77	0.09
535.118	0.09
535.466	0.09
535.814	0.08
536.162	0.09
536.509	0.09
536.857	0.09
537.205	0.09
537.552	0.09
537.9	0.09
538.248	0.09
538.595	0.09
538.943	0.09
539.29	0.09
539.637	0.09
539.985	0.09
540.332	0.09
540.679	0.09
541.026	0.08
541.373	0.09
541.721	0.08
542.068	0.08
542.415	0.09
542.762	0.08
543.108	0.07
543.455	0.07
543.802	0.08
544.149	0.08
544.496	0.08
544.842	0.08
545.189	0.06
545.535	0.07
545.882	0.07
546.228	0.07
546.575	0.07
546.921	0.07
547.267	0.07
547.614	0.08
547.96	0.07
548.306	0.07
548.652	0.08
548.998	0.08
549.344	0.07
549.69	0.07
550.036	0.07
550.382	0.07
550.728	0.07
551.074	0.08
551.42	0.08
551.765	0.08
552.111	0.08
552.457	0.08
552.802	0.09
553.148	0.08
553.493	0.07
553.839	0.07
554.184	0.08
554.529	0.08
554.875	0.08
555.22	0.08
555.565	0.08
555.91	0.07
556.255	0.08
556.6	0.08
556.945	0.07
557.29	0.08
557.635	0.08
557.98	0.09
558.325	0.08
558.67	0.08
559.014	0.08
559.359	0.08
559.704	0.08
560.048	0.07
560.393	0.08
560.737	0.07
561.082	0.08
561.426	0.07
561.77	0.08
562.115	0.07
562.459	0.07
562.803	0.08
563.147	0.08
563.491	0.07
563.835	0.08
564.179	0.09
564.523	0.08
564.867	0.08
565.211	0.08
565.555	0.08
565.899	0.09
566.242	0.08
566.586	0.07
566.93	0.08
567.273	0.08
567.617	0.08
567.96	0.08
568.304	0.08
568.647	0.07
568.99	0.08
569.334	0.08
569.677	0.08
570.02	0.08
570.363	0.08
570.706	0.08
571.049	0.08
571.392	0.08
571.735	0.07
572.078	0.08
572.421	0.09
572.764	0.08
573.106	0.08
573.449	0.07
573.792	0.08
574.134	0.08
574.477	0.09
574.819	0.08
575.162	0.08
575.504	0.07
575.847	0.08
576.189	0.08
576.531	0.08
576.873	0.08
577.215	0.08
577.558	0.08
577.9	0.07
578.242	0.08
578.584	0.08
578.926	0.07
579.267	0.08
579.609	0.08
579.951	0.07
580.293	0.08
580.634	0.08
580.976	0.09
581.318	0.07
581.659	0.08
582.001	0.08
582.342	0.08
582.683	0.08
583.025	0.07
583.366	0.07
583.707	0.07
584.049	0.07
584.39	0.07
584.731	0.07
585.072	0.07
585.413	0.08
585.754	0.07
586.095	0.08
586.435	0.08
586.776	0.07
587.117	0.07
587.458	0.07
587.798	0.07
588.139	0.07
588.48	0.07
588.82	0.07
589.161	0.08
589.501	0.07
589.841	0.07
590.182	0.07
590.522	0.07
590.862	0.07
591.202	0.08
591.542	0.07
591.882	0.07
592.222	0.08
592.562	0.08
592.902	0.07
593.242	0.07
593.582	0.07
593.922	0.07
594.261	0.07
594.601	0.07
594.941	0.07
595.28	0.08
595.62	0.08
595.959	0.07
596.299	0.07
596.638	0.07
596.977	0.07
597.317	0.08
597.656	0.07
597.995	0.08
598.334	0.08
598.673	0.08
599.012	0.08
599.351	0.08
599.69	0.08
600.029	0.08
600.368	0.08
600.707	0.08
601.046	0.08
601.384	0.08
601.723	0.08
602.061	0.07
602.4	0.08
602.738	0.08
603.077	0.08
603.415	0.07
603.754	0.08
604.092	0.08
604.43	0.08
604.768	0.08
605.107	0.08
605.445	0.07
605.783	0.08
606.121	0.07
606.459	0.07
606.796	0.08
607.134	0.07
607.472	0.07
607.81	0.07
608.148	0.08
608.485	0.08
608.823	0.08
609.16	0.07
609.498	0.08
609.835	0.07
610.173	0.07
610.51	0.07
610.847	0.08
611.185	0.08
611.522	0.08
611.859	0.07
612.196	0.08
612.533	0.08
612.87	0.08
613.207	0.08
613.544	0.09
613.881	0.09
614.217	0.09
614.554	0.07
614.891	0.08
615.228	0.08
615.564	0.08
615.901	0.09
616.237	0.08
616.574	0.08
616.91	0.09
617.246	0.09
617.583	0.08
617.919	0.09
618.255	0.08
618.591	0.09
618.927	0.09
619.263	0.09
619.599	0.09
619.935	0.09
620.271	0.08
620.607	0.08
620.943	0.08
621.279	0.09
621.614	0.08
621.95	0.09
622.286	0.08
622.621	0.09
622.957	0.08
623.292	0.08
623.627	0.08
623.963	0.08
624.298	0.08
624.633	0.08
624.968	0.07
625.304	0.08
625.639	0.07
625.974	0.08
626.309	0.07
626.644	0.08
626.979	0.08
627.313	0.08
627.648	0.08
627.983	0.08
628.318	0.08
628.652	0.07
628.987	0.07
629.321	0.07
629.656	0.07
629.99	0.06
630.325	0.07
630.659	0.07
630.993	0.06
631.327	0.06
631.662	0.06
631.996	0.06
632.33	0.06
632.664	0.07
632.998	0.07
633.332	0.07
633.666	0.07
633.999	0.07
634.333	0.07
634.667	0.07
635.001	0.07
635.334	0.07
635.668	0.06
636.001	0.07
636.335	0.07
636.668	0.07
637.001	0.06
637.335	0.06
637.668	0.07
638.001	0.06
638.334	0.07
638.668	0.06
639.001	0.06
639.334	0.06
639.667	0.07
639.999	0.06
640.332	0.07
640.665	0.07
640.998	0.07
641.331	0.07
641.663	0.06
641.996	0.06
642.328	0.07
642.661	0.07
642.993	0.06
643.326	0.07
643.658	0.06
643.99	0.06
644.323	0.06
644.655	0.06
644.987	0.07
645.319	0.07
645.651	0.07
645.983	0.06
646.315	0.06
646.647	0.06
646.979	0.07
647.31	0.07
647.642	0.07
647.974	0.06
648.305	0.08
648.637	0.06
648.968	0.06
649.3	0.07
649.631	0.07
649.963	0.07
650.294	0.07
650.625	0.07
650.957	0.07
651.288	0.07
651.619	0.07
651.95	0.08
652.281	0.08
652.612	0.07
652.943	0.08
653.274	0.08
653.604	0.07
653.935	0.07
654.266	0.07
654.596	0.07
654.927	0.06
655.258	0.07
655.588	0.08
655.918	0.07
656.249	0.05
656.579	0.06
656.909	0.06
657.24	0.06
657.57	0.07
657.9	0.07
658.23	0.07
658.56	0.08
658.89	0.07
659.22	0.06
659.55	0.07
659.88	0.07
660.209	0.07
660.539	0.08
660.869	0.08
661.198	0.07
661.528	0.06
661.857	0.07
662.187	0.07
662.516	0.07
662.846	0.06
663.175	0.07
663.504	0.07
663.833	0.06
664.163	0.07
664.492	0.07
664.821	0.07
665.15	0.07
665.479	0.07
665.807	0.06
666.136	0.07
666.465	0.07
666.794	0.07
667.122	0.07
667.451	0.07
667.78	0.07
668.108	0.07
668.437	0.07
668.765	0.07
669.093	0.07
669.422	0.07
669.75	0.07
670.078	0.07
670.406	0.08
670.734	0.07
671.062	0.07
671.39	0.07
671.718	0.07
672.046	0.07
672.374	0.06
672.702	0.06
673.029	0.06
673.357	0.07
673.685	0.07
674.012	0.06
674.34	0.06
674.667	0.07
674.995	0.07
675.322	0.07
675.649	0.06
675.977	0.07
676.304	0.07
676.631	0.07
676.958	0.06
677.285	0.06
677.612	0.06
677.939	0.07
678.266	0.07
678.593	0.06
678.92	0.06
679.246	0.06
679.573	0.06
679.9	0.06
680.226	0.06
680.553	0.06
680.879	0.06
681.206	0.06
681.532	0.07
681.858	0.06
682.184	0.06
682.511	0.07
682.837	0.07
683.163	0.07
683.489	0.07
683.815	0.07
684.141	0.07
684.467	0.06
684.793	0.06
685.118	0.06
685.444	0.06
685.77	0.06
686.095	0.07
686.421	0.06
686.746	0.07
687.072	0.06
687.397	0.06
687.723	0.07
688.048	0.07
688.373	0.06
688.698	0.07
689.023	0.06
689.349	0.06
689.674	0.07
689.999	0.06
690.323	0.05
690.648	0.05
690.973	0.06
691.298	0.06
691.623	0.06
691.947	0.07
692.272	0.06
692.596	0.07
692.921	0.07
693.245	0.06
693.57	0.06
693.894	0.07
694.218	0.06
694.543	0.07
694.867	0.07
695.191	0.06
695.515	0.07
695.839	0.06
696.163	0.07
696.487	0.07
696.811	0.06
697.135	0.07
697.458	0.07
697.782	0.07
698.106	0.07
698.429	0.07
698.753	0.07
699.076	0.07
699.4	0.06
699.723	0.06
700.046	0.06
700.37	0.06
700.693	0.06
701.016	0.06
701.339	0.07
701.662	0.06
701.985	0.06
702.308	0.06
702.631	0.07
702.954	0.07
703.277	0.07
703.599	0.07
703.922	0.06
704.245	0.06
704.567	0.06
704.89	0.06
705.212	0.06
705.535	0.05
705.857	0.06
706.179	0.05
706.502	0.06
706.824	0.05
707.146	0.06
707.468	0.06
707.79	0.05
708.112	0.06
708.434	0.06
708.756	0.06
709.078	0.06
709.399	0.06
709.721	0.06
710.043	0.06
710.364	0.06
710.686	0.06
711.007	0.06
711.329	0.07
711.65	0.06
711.972	0.06
712.293	0.07
712.614	0.07
712.935	0.07
713.256	0.06
713.577	0.07
713.898	0.06
714.219	0.06
714.54	0.05
714.861	0.05
715.182	0.05
715.503	0.05
715.823	0.06
716.144	0.05
716.464	0.05
716.785	0.05
717.105	0.05
717.426	0.06
717.746	0.05
718.066	0.05
718.387	0.05
718.707	0.05
719.027	0.05
719.347	0.04
719.667	0.06
719.987	0.04
720.307	0.05
720.627	0.05
720.947	0.05
721.266	0.05
721.586	0.05
721.906	0.05
722.225	0.04
722.545	0.05
722.864	0.05
