Data from 12-12-AQDScycling_Absorbance__421__00421.txt Node

Date: Tue Dec 12 12:41:59 EST 2023
User: kyuminlee
Spectrometer: FLMS00943
Trigger mode: 0
Integration Time (sec): 1.000000E-1
Scans to average: 1
Electric dark correction enabled: true
Nonlinearity correction enabled: false
Boxcar width: 0
XAxis mode: Wavelengths
Number of Pixels in Spectrum: 2048
>>>>>Begin Spectral Data<<<<<
179.651	0.37
180.037	0.37
180.424	0.37
180.81	-0.44
181.197	0.07
181.583	-0
181.97	-0.16
182.356	-0
182.743	-0
183.129	0.02
183.515	-0
183.901	-0
184.288	0.62
184.674	0.99
185.06	-0.87
185.446	-0.38
185.832	-0
186.218	0.83
186.604	1.51
186.99	-0
187.376	0.63
187.762	-0.15
188.148	0.26
188.534	-0.22
188.92	0.1
189.305	-0
189.691	0.27
190.077	0.28
190.463	0.13
190.848	0.03
191.234	0.13
191.619	0.22
192.005	0.03
192.391	0.25
192.776	0.14
193.161	0.15
193.547	0.32
193.932	0.11
194.318	0.15
194.703	0.06
195.088	0.29
195.473	0.26
195.859	0.27
196.244	0.13
196.629	0.26
197.014	0.21
197.399	0.22
197.784	0.29
198.169	0.16
198.554	0.47
198.939	0.12
199.324	0.1
199.709	0.09
200.094	0.13
200.478	0.1
200.863	0.2
201.248	0.26
201.633	0.2
202.017	0.2
202.402	0.21
202.787	0.13
203.171	0.16
203.556	0.26
203.94	0.18
204.325	0.2
204.709	0.28
205.093	0.03
205.478	0.04
205.862	0.13
206.246	0.13
206.631	0.24
207.015	0.04
207.399	0.14
207.783	0.16
208.167	0.17
208.551	0.28
208.935	0.12
209.319	0.23
209.703	0.14
210.087	0.27
210.471	0.13
210.855	0.09
211.239	0.31
211.623	0.28
212.007	0.27
212.39	0.22
212.774	0.24
213.158	0.18
213.541	0.35
213.925	0.19
214.309	0.27
214.692	0.2
215.076	0.3
215.459	0.23
215.842	0.16
216.226	0.21
216.609	0.26
216.993	0.11
217.376	0.34
217.759	0.26
218.142	0.23
218.525	0.56
218.909	0.32
219.292	0.36
219.675	0.68
220.058	0.43
220.441	0.45
220.824	0.47
221.207	0.58
221.59	0.51
221.973	0.45
222.355	0.66
222.738	0.87
223.121	0.68
223.504	0.59
223.886	0.69
224.269	0.59
224.652	0.66
225.034	0.69
225.417	0.76
225.799	0.73
226.182	0.79
226.564	0.75
226.947	0.79
227.329	0.85
227.711	0.9
228.094	0.87
228.476	0.95
228.858	0.85
229.24	0.85
229.623	0.97
230.005	0.85
230.387	0.89
230.769	0.79
231.151	0.85
231.533	0.91
231.915	1.05
232.297	1.04
232.679	1.01
233.061	1.04
233.442	1.09
233.824	1
234.206	1.15
234.588	1.29
234.969	1.01
235.351	1.15
235.733	1.14
236.114	1.1
236.496	1.07
236.877	1.13
237.259	1.13
237.64	1.19
238.022	1.01
238.403	1.09
238.784	1.07
239.165	1.02
239.547	1.1
239.928	1.15
240.309	1.13
240.69	1.08
241.071	1.05
241.452	1.11
241.834	1.04
242.215	1.08
242.595	1
242.976	1.18
243.357	1.01
243.738	1.16
244.119	1.26
244.5	1.12
244.881	1.12
245.261	1.21
245.642	1.18
246.023	1.11
246.403	1.09
246.784	1.37
247.164	1.32
247.545	1.37
247.925	1.27
248.306	1.31
248.686	1.32
249.067	1.3
249.447	1.37
249.827	1.57
250.207	1.36
250.588	1.33
250.968	1.41
251.348	1.32
251.728	1.49
252.108	1.34
252.488	1.45
252.868	1.3
253.248	1.24
253.628	1.64
254.008	1.58
254.388	1.37
254.768	1.45
255.147	1.36
255.527	1.42
255.907	1.46
256.287	1.42
256.666	1.54
257.046	1.47
257.425	1.5
257.805	1.43
258.184	1.32
258.564	1.4
258.943	1.39
259.323	1.48
259.702	1.62
260.081	1.43
260.461	1.42
260.84	1.35
261.219	1.63
261.598	1.5
261.977	1.36
262.356	1.51
262.736	1.6
263.115	1.52
263.494	1.41
263.873	1.46
264.251	1.5
264.63	1.55
265.009	1.41
265.388	1.4
265.767	1.4
266.145	1.4
266.524	1.57
266.903	1.44
267.281	1.38
267.66	1.42
268.039	1.38
268.417	1.51
268.796	1.38
269.174	1.43
269.552	1.37
269.931	1.6
270.309	1.48
270.687	1.57
271.066	1.75
271.444	1.45
271.822	1.59
272.2	1.47
272.578	1.47
272.956	1.7
273.334	1.45
273.712	1.45
274.09	1.41
274.468	1.43
274.846	1.27
275.224	1.29
275.602	1.63
275.98	1.67
276.357	1.47
276.735	1.46
277.113	1.48
277.49	1.34
277.868	1.24
278.246	1.42
278.623	1.34
279.001	1.46
279.378	1.44
279.756	1.35
280.133	1.58
280.51	1.36
280.888	1.4
281.265	1.34
281.642	1.54
282.019	1.68
282.396	1.56
282.773	1.47
283.151	1.51
283.528	1.62
283.905	1.35
284.282	1.55
284.659	1.56
285.035	1.39
285.412	1.37
285.789	1.57
286.166	1.45
286.543	1.44
286.919	1.53
287.296	1.5
287.673	1.64
288.049	1.55
288.426	1.69
288.802	1.49
289.179	1.65
289.555	1.58
289.932	1.55
290.308	1.45
290.684	1.47
291.061	1.36
291.437	1.56
291.813	1.38
292.189	1.34
292.565	1.27
292.942	1.24
293.318	1.46
293.694	1.56
294.07	1.28
294.446	1.48
294.822	1.65
295.197	1.52
295.573	1.5
295.949	1.39
296.325	1.51
296.701	1.52
297.076	1.71
297.452	1.61
297.828	1.41
298.203	1.65
298.579	1.49
298.954	1.39
299.33	1.45
299.705	1.53
300.081	1.56
300.456	1.43
300.831	1.55
301.206	1.45
301.582	1.56
301.957	1.39
302.332	1.57
302.707	1.45
303.082	1.41
303.457	1.49
303.832	1.4
304.207	1.36
304.582	1.44
304.957	1.4
305.332	1.48
305.707	1.47
306.082	1.36
306.456	1.56
306.831	1.42
307.206	1.48
307.58	1.48
307.955	1.36
308.33	1.44
308.704	1.41
309.079	1.39
309.453	1.49
309.828	1.48
310.202	1.41
310.576	1.44
310.951	1.49
311.325	1.44
311.699	1.37
312.073	1.35
312.447	1.4
312.821	1.31
313.196	1.4
313.57	1.34
313.944	1.41
314.317	1.42
314.691	1.54
315.065	1.51
315.439	1.51
315.813	1.43
316.187	1.44
316.56	1.49
316.934	1.45
317.308	1.4
317.681	1.38
318.055	1.41
318.428	1.38
318.802	1.49
319.175	1.47
319.549	1.39
319.922	1.25
320.295	1.36
320.669	1.47
321.042	1.54
321.415	1.48
321.788	1.44
322.162	1.39
322.535	1.51
322.908	1.49
323.281	1.4
323.654	1.58
324.027	1.39
324.4	1.53
324.773	1.54
325.145	1.46
325.518	1.38
325.891	1.4
326.264	1.53
326.636	1.39
327.009	1.42
327.382	1.48
327.754	1.54
328.127	1.53
328.499	1.5
328.872	1.44
329.244	1.43
329.616	1.49
329.989	1.42
330.361	1.46
330.733	1.35
331.106	1.32
331.478	1.5
331.85	1.53
332.222	1.56
332.594	1.51
332.966	1.49
333.338	1.58
333.71	1.57
334.082	1.6
334.454	1.39
334.826	1.37
335.197	1.61
335.569	1.54
335.941	1.36
336.312	1.43
336.684	1.39
337.056	1.46
337.427	1.49
337.799	1.56
338.17	1.64
338.542	1.46
338.913	1.55
339.284	1.56
339.656	1.55
340.027	1.46
340.398	1.45
340.769	1.48
341.141	1.59
341.512	1.61
341.883	1.57
342.254	1.41
342.625	1.5
342.996	1.48
343.367	1.51
343.738	1.41
344.108	1.4
344.479	1.54
344.85	1.5
345.221	1.57
345.591	1.32
345.962	1.47
346.333	1.45
346.703	1.23
347.074	1.3
347.444	1.28
347.815	1.46
348.185	1.46
348.556	1.33
348.926	1.24
349.296	1.39
349.666	1.34
350.037	1.23
350.407	1.23
350.777	1.27
351.147	1.41
351.517	1.36
351.887	1.31
352.257	1.43
352.627	1.24
352.997	1.29
353.367	1.34
353.737	1.37
354.106	1.32
354.476	1.35
354.846	1.47
355.216	1.34
355.585	1.35
355.955	1.4
356.324	1.38
356.694	1.38
357.063	1.39
357.433	1.36
357.802	1.36
358.171	1.41
358.541	1.34
358.91	1.39
359.279	1.34
359.648	1.28
360.017	1.37
360.387	1.39
360.756	1.3
361.125	1.37
361.494	1.44
361.863	1.32
362.231	1.35
362.6	1.28
362.969	1.35
363.338	1.27
363.707	1.45
364.075	1.39
364.444	1.21
364.813	1.34
365.181	1.32
365.55	1.29
365.918	1.41
366.287	1.35
366.655	1.39
367.024	1.39
367.392	1.34
367.76	1.28
368.128	1.34
368.497	1.3
368.865	1.28
369.233	1.3
369.601	1.36
369.969	1.35
370.337	1.3
370.705	1.36
371.073	1.35
371.441	1.35
371.809	1.38
372.177	1.42
372.544	1.41
372.912	1.4
373.28	1.41
373.647	1.46
374.015	1.46
374.383	1.46
374.75	1.53
375.118	1.42
375.485	1.35
375.853	1.48
376.22	1.46
376.587	1.33
376.955	1.46
377.322	1.4
377.689	1.34
378.056	1.32
378.423	1.33
378.79	1.33
379.157	1.45
379.524	1.44
379.891	1.32
380.258	1.47
380.625	1.37
380.992	1.48
381.359	1.41
381.726	1.48
382.092	1.39
382.459	1.46
382.826	1.48
383.192	1.47
383.559	1.41
383.925	1.51
384.292	1.41
384.658	1.5
385.025	1.48
385.391	1.64
385.757	1.53
386.123	1.59
386.49	1.49
386.856	1.47
387.222	1.44
387.588	1.5
387.954	1.75
388.32	1.64
388.686	1.54
389.052	1.49
389.418	1.43
389.784	1.53
390.15	1.59
390.515	1.42
390.881	1.71
391.247	1.46
391.613	1.58
391.978	1.46
392.344	1.55
392.709	1.5
393.075	1.53
393.44	1.53
393.806	1.57
394.171	1.51
394.536	1.51
394.902	1.54
395.267	1.41
395.632	1.46
395.997	1.38
396.362	1.43
396.727	1.43
397.092	1.42
397.457	1.38
397.822	1.48
398.187	1.51
398.552	1.49
398.917	1.54
399.282	1.41
399.646	1.44
400.011	1.51
400.376	1.44
400.74	1.39
401.105	1.45
401.47	1.39
401.834	1.46
402.199	1.38
402.563	1.35
402.927	1.37
403.292	1.51
403.656	1.33
404.02	1.38
404.384	1.5
404.749	1.42
405.113	1.43
405.477	1.38
405.841	1.36
406.205	1.4
406.569	1.29
406.933	1.39
407.296	1.34
407.66	1.34
408.024	1.26
408.388	1.39
408.752	1.34
409.115	1.33
409.479	1.28
409.842	1.31
410.206	1.29
410.569	1.34
410.933	1.3
411.296	1.22
411.66	1.31
412.023	1.22
412.386	1.34
412.749	1.23
413.113	1.25
413.476	1.2
413.839	1.22
414.202	1.23
414.565	1.19
414.928	1.22
415.291	1.18
415.654	1.24
416.017	1.27
416.38	1.19
416.742	1.23
417.105	1.22
417.468	1.2
417.83	1.18
418.193	1.26
418.556	1.14
418.918	1.18
419.281	1.19
419.643	1.24
420.005	1.25
420.368	1.27
420.73	1.11
421.092	1.18
421.455	1.23
421.817	1.1
422.179	1.16
422.541	1.13
422.903	1.18
423.265	1.21
423.627	1.17
423.989	1.18
424.351	1.12
424.713	1.15
425.075	1.14
425.436	1.13
425.798	1.18
426.16	1.13
426.521	1.12
426.883	1.16
427.245	1.15
427.606	1.09
427.967	1.07
428.329	1.07
428.69	1.14
429.052	1.12
429.413	1.12
429.774	1.12
430.135	1.12
430.497	1.13
430.858	1.08
431.219	1.1
431.58	1.1
431.941	1.07
432.302	1.03
432.663	1.05
433.024	1.13
433.384	1.09
433.745	1.07
434.106	1.05
434.467	1.08
434.827	1.09
435.188	1.03
435.548	1.08
435.909	1.04
436.269	1.09
436.63	1
436.99	1.04
437.351	1.02
437.711	1.05
438.071	1.01
438.431	1.01
438.792	1.04
439.152	1.01
439.512	0.96
439.872	0.99
440.232	0.96
440.592	1.03
440.952	0.97
441.312	1.01
441.671	0.96
442.031	0.95
442.391	0.96
442.751	0.98
443.11	0.96
443.47	0.95
443.83	0.93
444.189	0.92
444.549	0.93
444.908	0.92
445.267	0.9
445.627	0.91
445.986	0.9
446.345	0.87
446.705	0.89
447.064	0.89
447.423	0.87
447.782	0.89
448.141	0.87
448.5	0.85
448.859	0.84
449.218	0.87
449.577	0.85
449.936	0.85
450.295	0.85
450.653	0.84
451.012	0.83
451.371	0.82
451.729	0.83
452.088	0.81
452.447	0.81
452.805	0.81
453.163	0.81
453.522	0.8
453.88	0.8
454.239	0.79
454.597	0.77
454.955	0.76
455.313	0.74
455.671	0.76
456.029	0.75
456.388	0.74
456.746	0.73
457.104	0.72
457.461	0.71
457.819	0.71
458.177	0.7
458.535	0.68
458.893	0.7
459.25	0.67
459.608	0.68
459.966	0.66
460.323	0.64
460.681	0.64
461.038	0.64
461.396	0.63
461.753	0.61
462.111	0.61
462.468	0.6
462.825	0.59
463.182	0.59
463.54	0.58
463.897	0.59
464.254	0.58
464.611	0.57
464.968	0.56
465.325	0.56
465.682	0.55
466.039	0.54
466.395	0.54
466.752	0.53
467.109	0.52
467.466	0.51
467.822	0.52
468.179	0.5
468.535	0.5
468.892	0.49
469.248	0.49
469.605	0.48
469.961	0.48
470.318	0.48
470.674	0.46
471.03	0.46
471.386	0.46
471.743	0.44
472.099	0.44
472.455	0.43
472.811	0.44
473.167	0.43
473.523	0.42
473.879	0.4
474.235	0.41
474.59	0.4
474.946	0.39
475.302	0.39
475.657	0.38
476.013	0.38
476.369	0.37
476.724	0.37
477.08	0.36
477.435	0.36
477.791	0.36
478.146	0.35
478.501	0.35
478.857	0.35
479.212	0.34
479.567	0.33
479.922	0.33
480.277	0.33
480.632	0.32
480.987	0.32
481.342	0.31
481.697	0.31
482.052	0.3
482.407	0.3
482.762	0.29
483.116	0.29
483.471	0.29
483.826	0.28
484.18	0.27
484.535	0.28
484.89	0.28
485.244	0.27
485.598	0.27
485.953	0.26
486.307	0.26
486.661	0.26
487.016	0.26
487.37	0.26
487.724	0.25
488.078	0.25
488.432	0.25
488.786	0.24
489.14	0.24
489.494	0.23
489.848	0.23
490.202	0.23
490.556	0.23
490.91	0.23
491.263	0.23
491.617	0.23
491.971	0.22
492.324	0.21
492.678	0.22
493.031	0.22
493.385	0.21
493.738	0.22
494.091	0.21
494.445	0.21
494.798	0.21
495.151	0.2
495.504	0.2
495.857	0.2
496.21	0.2
496.564	0.2
496.916	0.21
497.269	0.19
497.622	0.2
497.975	0.19
498.328	0.19
498.681	0.2
499.033	0.19
499.386	0.19
499.739	0.19
500.091	0.19
500.444	0.19
500.796	0.18
501.149	0.18
501.501	0.19
501.854	0.19
502.206	0.18
502.558	0.18
502.91	0.18
503.263	0.17
503.615	0.18
503.967	0.18
504.319	0.18
504.671	0.17
505.023	0.17
505.375	0.17
505.726	0.17
506.078	0.17
506.43	0.17
506.782	0.17
507.133	0.17
507.485	0.17
507.837	0.18
508.188	0.18
508.54	0.17
508.891	0.17
509.243	0.17
509.594	0.17
509.945	0.17
510.296	0.16
510.648	0.17
510.999	0.16
511.35	0.16
511.701	0.16
512.052	0.17
512.403	0.17
512.754	0.16
513.105	0.16
513.456	0.16
513.807	0.16
514.157	0.17
514.508	0.17
514.859	0.16
515.209	0.16
515.56	0.17
515.91	0.17
516.261	0.17
516.611	0.16
516.962	0.17
517.312	0.17
517.662	0.16
518.013	0.17
518.363	0.17
518.713	0.17
519.063	0.17
519.413	0.17
519.763	0.16
520.113	0.17
520.463	0.17
520.813	0.18
521.163	0.17
521.512	0.16
521.862	0.17
522.212	0.17
522.562	0.17
522.911	0.16
523.261	0.17
523.61	0.16
523.96	0.17
524.309	0.17
524.658	0.17
525.008	0.17
525.357	0.17
525.706	0.17
526.056	0.16
526.405	0.17
526.754	0.17
527.103	0.16
527.452	0.17
527.801	0.17
528.15	0.17
528.499	0.17
528.847	0.17
529.196	0.18
529.545	0.17
529.893	0.17
530.242	0.17
530.591	0.17
530.939	0.18
531.288	0.17
531.636	0.17
531.985	0.17
532.333	0.18
532.681	0.17
533.029	0.18
533.378	0.18
533.726	0.18
534.074	0.18
534.422	0.17
534.77	0.18
535.118	0.17
535.466	0.17
535.814	0.18
536.162	0.18
536.509	0.18
536.857	0.17
537.205	0.18
537.552	0.18
537.9	0.17
538.248	0.18
538.595	0.18
538.943	0.18
539.29	0.18
539.637	0.17
539.985	0.18
540.332	0.18
540.679	0.18
541.026	0.17
541.373	0.18
541.721	0.17
542.068	0.17
542.415	0.17
542.762	0.17
543.108	0.16
543.455	0.16
543.802	0.17
544.149	0.16
544.496	0.18
544.842	0.16
545.189	0.16
545.535	0.17
545.882	0.17
546.228	0.16
546.575	0.16
546.921	0.17
547.267	0.17
547.614	0.17
547.96	0.17
548.306	0.17
548.652	0.17
548.998	0.18
549.344	0.16
549.69	0.17
550.036	0.17
550.382	0.17
550.728	0.16
551.074	0.17
551.42	0.17
551.765	0.17
552.111	0.17
552.457	0.18
552.802	0.18
553.148	0.17
553.493	0.17
553.839	0.18
554.184	0.18
554.529	0.17
554.875	0.18
555.22	0.18
555.565	0.18
555.91	0.18
556.255	0.18
556.6	0.18
556.945	0.17
557.29	0.17
557.635	0.18
557.98	0.18
558.325	0.18
558.67	0.18
559.014	0.18
559.359	0.18
559.704	0.18
560.048	0.18
560.393	0.18
560.737	0.17
561.082	0.19
561.426	0.17
561.77	0.18
562.115	0.17
562.459	0.18
562.803	0.18
563.147	0.17
563.491	0.18
563.835	0.18
564.179	0.18
564.523	0.18
564.867	0.17
565.211	0.18
565.555	0.18
565.899	0.18
566.242	0.17
566.586	0.17
566.93	0.18
567.273	0.18
567.617	0.18
567.96	0.18
568.304	0.19
568.647	0.18
568.99	0.18
569.334	0.19
569.677	0.18
570.02	0.19
570.363	0.18
570.706	0.18
571.049	0.18
571.392	0.18
571.735	0.18
572.078	0.18
572.421	0.18
572.764	0.17
573.106	0.18
573.449	0.17
573.792	0.17
574.134	0.18
574.477	0.18
574.819	0.17
575.162	0.18
575.504	0.17
575.847	0.17
576.189	0.18
576.531	0.18
576.873	0.18
577.215	0.18
577.558	0.19
577.9	0.18
578.242	0.18
578.584	0.18
578.926	0.18
579.267	0.18
579.609	0.18
579.951	0.18
580.293	0.18
580.634	0.19
580.976	0.18
581.318	0.18
581.659	0.18
582.001	0.17
582.342	0.17
582.683	0.18
583.025	0.17
583.366	0.17
583.707	0.18
584.049	0.17
584.39	0.18
584.731	0.18
585.072	0.17
585.413	0.18
585.754	0.18
586.095	0.18
586.435	0.18
586.776	0.18
587.117	0.18
587.458	0.18
587.798	0.17
588.139	0.18
588.48	0.17
588.82	0.17
589.161	0.18
589.501	0.17
589.841	0.18
590.182	0.18
590.522	0.17
590.862	0.18
591.202	0.17
591.542	0.17
591.882	0.18
592.222	0.18
592.562	0.18
592.902	0.18
593.242	0.17
593.582	0.18
593.922	0.17
594.261	0.17
594.601	0.18
594.941	0.18
595.28	0.18
595.62	0.18
595.959	0.17
596.299	0.17
596.638	0.18
596.977	0.18
597.317	0.18
597.656	0.17
597.995	0.18
598.334	0.18
598.673	0.18
599.012	0.18
599.351	0.19
599.69	0.18
600.029	0.18
600.368	0.18
600.707	0.18
601.046	0.18
601.384	0.18
601.723	0.18
602.061	0.18
602.4	0.18
602.738	0.18
603.077	0.17
603.415	0.17
603.754	0.18
604.092	0.18
604.43	0.17
604.768	0.18
605.107	0.17
605.445	0.16
605.783	0.17
606.121	0.17
606.459	0.17
606.796	0.18
607.134	0.17
607.472	0.17
607.81	0.17
608.148	0.17
608.485	0.18
608.823	0.18
609.16	0.17
609.498	0.17
609.835	0.17
610.173	0.17
610.51	0.17
610.847	0.18
611.185	0.18
611.522	0.18
611.859	0.18
612.196	0.18
612.533	0.18
612.87	0.18
613.207	0.18
613.544	0.18
613.881	0.19
614.217	0.18
614.554	0.18
614.891	0.18
615.228	0.18
615.564	0.18
615.901	0.18
616.237	0.18
616.574	0.17
616.91	0.18
617.246	0.18
617.583	0.18
617.919	0.19
618.255	0.19
618.591	0.18
618.927	0.18
619.263	0.19
619.599	0.18
619.935	0.18
620.271	0.18
620.607	0.18
620.943	0.18
621.279	0.18
621.614	0.18
621.95	0.18
622.286	0.17
622.621	0.17
622.957	0.18
623.292	0.17
623.627	0.17
623.963	0.17
624.298	0.17
624.633	0.16
624.968	0.16
625.304	0.17
625.639	0.16
625.974	0.16
626.309	0.16
626.644	0.16
626.979	0.17
627.313	0.17
627.648	0.16
627.983	0.17
628.318	0.16
628.652	0.15
628.987	0.16
629.321	0.16
629.656	0.16
629.99	0.16
630.325	0.16
630.659	0.16
630.993	0.15
631.327	0.16
631.662	0.15
631.996	0.16
632.33	0.16
632.664	0.16
632.998	0.15
633.332	0.16
633.666	0.16
633.999	0.16
634.333	0.15
634.667	0.15
635.001	0.15
635.334	0.16
635.668	0.15
636.001	0.15
636.335	0.15
636.668	0.15
637.001	0.15
637.335	0.15
637.668	0.15
638.001	0.15
638.334	0.16
638.668	0.14
639.001	0.15
639.334	0.15
639.667	0.15
639.999	0.15
640.332	0.15
640.665	0.14
640.998	0.15
641.331	0.15
641.663	0.15
641.996	0.14
642.328	0.15
642.661	0.15
642.993	0.15
643.326	0.15
643.658	0.14
643.99	0.14
644.323	0.14
644.655	0.15
644.987	0.14
645.319	0.15
645.651	0.15
645.983	0.15
646.315	0.14
646.647	0.14
646.979	0.15
647.31	0.15
647.642	0.14
647.974	0.14
648.305	0.15
648.637	0.14
648.968	0.15
649.3	0.15
649.631	0.15
649.963	0.14
650.294	0.15
650.625	0.14
650.957	0.15
651.288	0.15
651.619	0.15
651.95	0.14
652.281	0.15
652.612	0.15
652.943	0.15
653.274	0.15
653.604	0.15
653.935	0.14
654.266	0.15
654.596	0.14
654.927	0.15
655.258	0.14
655.588	0.15
655.918	0.15
656.249	0.13
656.579	0.14
656.909	0.15
657.24	0.13
657.57	0.15
657.9	0.15
658.23	0.15
658.56	0.15
658.89	0.15
659.22	0.14
659.55	0.14
659.88	0.14
660.209	0.14
660.539	0.15
660.869	0.15
661.198	0.15
661.528	0.14
661.857	0.14
662.187	0.15
662.516	0.14
662.846	0.15
663.175	0.14
663.504	0.15
663.833	0.15
664.163	0.15
664.492	0.14
664.821	0.14
665.15	0.14
665.479	0.14
665.807	0.14
666.136	0.14
666.465	0.14
666.794	0.14
667.122	0.14
667.451	0.13
667.78	0.14
668.108	0.13
668.437	0.13
668.765	0.14
669.093	0.13
669.422	0.13
669.75	0.13
670.078	0.13
670.406	0.14
670.734	0.14
671.062	0.13
671.39	0.13
671.718	0.13
672.046	0.13
672.374	0.13
672.702	0.13
673.029	0.13
673.357	0.13
673.685	0.13
674.012	0.14
674.34	0.13
674.667	0.14
674.995	0.13
675.322	0.14
675.649	0.12
675.977	0.14
676.304	0.13
676.631	0.13
676.958	0.14
677.285	0.14
677.612	0.13
677.939	0.13
678.266	0.13
678.593	0.14
678.92	0.14
679.246	0.12
679.573	0.13
679.9	0.13
680.226	0.14
680.553	0.13
680.879	0.13
681.206	0.13
681.532	0.12
681.858	0.13
682.184	0.12
682.511	0.12
682.837	0.12
683.163	0.12
683.489	0.13
683.815	0.12
684.141	0.12
684.467	0.13
684.793	0.11
685.118	0.12
685.444	0.12
685.77	0.12
686.095	0.12
686.421	0.12
686.746	0.13
687.072	0.12
687.397	0.12
687.723	0.13
688.048	0.13
688.373	0.12
688.698	0.12
689.023	0.13
689.349	0.12
689.674	0.13
689.999	0.12
690.323	0.12
690.648	0.12
690.973	0.12
691.298	0.12
691.623	0.12
691.947	0.12
692.272	0.12
692.596	0.12
692.921	0.12
693.245	0.11
693.57	0.12
693.894	0.12
694.218	0.12
694.543	0.12
694.867	0.11
695.191	0.11
695.515	0.12
695.839	0.11
696.163	0.11
696.487	0.11
696.811	0.11
697.135	0.11
697.458	0.11
697.782	0.11
698.106	0.11
698.429	0.11
698.753	0.11
699.076	0.11
699.4	0.11
699.723	0.11
700.046	0.1
700.37	0.11
700.693	0.11
701.016	0.11
701.339	0.11
701.662	0.11
701.985	0.12
702.308	0.11
702.631	0.11
702.954	0.12
703.277	0.11
703.599	0.11
703.922	0.1
704.245	0.1
704.567	0.09
704.89	0.1
705.212	0.11
705.535	0.1
705.857	0.09
706.179	0.09
706.502	0.1
706.824	0.09
707.146	0.09
707.468	0.09
707.79	0.1
708.112	0.1
708.434	0.1
708.756	0.1
709.078	0.1
709.399	0.1
709.721	0.1
710.043	0.1
710.364	0.1
710.686	0.11
711.007	0.1
711.329	0.11
711.65	0.1
711.972	0.11
712.293	0.11
712.614	0.1
712.935	0.1
713.256	0.1
713.577	0.11
713.898	0.1
714.219	0.1
714.54	0.09
714.861	0.09
715.182	0.1
715.503	0.09
715.823	0.09
716.144	0.09
716.464	0.09
716.785	0.09
717.105	0.08
717.426	0.09
717.746	0.08
718.066	0.08
718.387	0.09
718.707	0.08
719.027	0.09
719.347	0.08
719.667	0.09
719.987	0.08
720.307	0.08
720.627	0.08
720.947	0.08
721.266	0.09
721.586	0.08
721.906	0.08
722.225	0.08
722.545	0.08
722.864	0.08
723.184	0.09
