Data from 12-12-AQDScycling_Absorbance__149__00149.txt Node

Date: Tue Dec 12 11:33:59 EST 2023
User: kyuminlee
Spectrometer: FLMS00943
Trigger mode: 0
Integration Time (sec): 1.000000E-1
Scans to average: 1
Electric dark correction enabled: true
Nonlinearity correction enabled: false
Boxcar width: 0
XAxis mode: Wavelengths
Number of Pixels in Spectrum: 2048
>>>>>Begin Spectral Data<<<<<
179.651	-0
180.037	-0
180.424	-0
180.81	-0.07
181.197	-0
181.583	-0.19
181.97	-0.62
182.356	-0
182.743	-0.59
183.129	0.41
183.515	1.33
183.901	-2.22
184.288	0.09
184.674	-0
185.06	-0
185.446	0.61
185.832	-0
186.218	0.48
186.604	-0
186.99	-0.21
187.376	-0
187.762	0.01
188.148	-0
188.534	-0.22
188.92	0.03
189.305	0
189.691	0.17
190.077	0.15
190.463	0.18
190.848	0.16
191.234	-0.07
191.619	0.05
192.005	0.15
192.391	0.05
192.776	0.16
193.161	0.03
193.547	0.18
193.932	0.05
194.318	0.09
194.703	0.08
195.088	0.2
195.473	0.23
195.859	0.12
196.244	0.19
196.629	0.11
197.014	0.12
197.399	0.17
197.784	0.18
198.169	0.05
198.554	0.23
198.939	0.15
199.324	0.19
199.709	-0.03
200.094	0.02
200.478	0.03
200.863	0.19
201.248	0.17
201.633	0.1
202.017	0.16
202.402	0.23
202.787	0.07
203.171	0.15
203.556	0.2
203.94	0.09
204.325	0.23
204.709	0.2
205.093	0.2
205.478	0.05
205.862	0.06
206.246	0.25
206.631	0.21
207.015	0.03
207.399	0.11
207.783	0.05
208.167	0.1
208.551	0.21
208.935	0.13
209.319	0.14
209.703	0.16
210.087	0.19
210.471	0.07
210.855	0.17
211.239	0.21
211.623	0.28
212.007	0.26
212.39	0.27
212.774	0.16
213.158	0.06
213.541	0.29
213.925	0.23
214.309	0.31
214.692	0.31
215.076	0.17
215.459	0.16
215.842	0.15
216.226	0.18
216.609	0.18
216.993	0.17
217.376	0.18
217.759	0.22
218.142	0.25
218.525	0.39
218.909	0.33
219.292	0.28
219.675	0.48
220.058	0.49
220.441	0.52
220.824	0.57
221.207	0.45
221.59	0.48
221.973	0.45
222.355	0.61
222.738	0.69
223.121	0.68
223.504	0.5
223.886	0.6
224.269	0.74
224.652	0.71
225.034	0.79
225.417	0.64
225.799	0.8
226.182	1
226.564	0.84
226.947	0.78
227.329	0.74
227.711	0.94
228.094	0.92
228.476	0.91
228.858	0.71
229.24	0.83
229.623	0.83
230.005	0.92
230.387	0.81
230.769	0.86
231.151	0.94
231.533	0.96
231.915	1.04
232.297	1.22
232.679	0.98
233.061	0.95
233.442	0.92
233.824	1.09
234.206	0.98
234.588	1.02
234.969	1.06
235.351	0.88
235.733	1.12
236.114	1.14
236.496	1.33
236.877	1.05
237.259	0.93
237.64	1.01
238.022	1.04
238.403	0.95
238.784	1.02
239.165	0.98
239.547	1.03
239.928	1.03
240.309	1.08
240.69	1.08
241.071	0.97
241.452	0.94
241.834	0.94
242.215	1.2
242.595	1.03
242.976	1.11
243.357	1.06
243.738	1.11
244.119	1.27
244.5	1.15
244.881	1.3
245.261	1.15
245.642	1.04
246.023	1.18
246.403	1.23
246.784	1.13
247.164	1.2
247.545	1.22
247.925	1.25
248.306	1.23
248.686	1.59
249.067	1.29
249.447	1.4
249.827	1.53
250.207	1.49
250.588	1.35
250.968	1.43
251.348	1.33
251.728	1.46
252.108	1.33
252.488	1.3
252.868	1.35
253.248	1.3
253.628	1.32
254.008	1.49
254.388	1.32
254.768	1.37
255.147	1.38
255.527	1.38
255.907	1.38
256.287	1.37
256.666	1.39
257.046	1.5
257.425	1.48
257.805	1.32
258.184	1.26
258.564	1.34
258.943	1.45
259.323	1.52
259.702	1.51
260.081	1.45
260.461	1.48
260.84	1.42
261.219	1.6
261.598	1.39
261.977	1.5
262.356	1.41
262.736	1.49
263.115	1.49
263.494	1.33
263.873	1.45
264.251	1.42
264.63	1.49
265.009	1.38
265.388	1.32
265.767	1.33
266.145	1.32
266.524	1.53
266.903	1.36
267.281	1.52
267.66	1.43
268.039	1.42
268.417	1.34
268.796	1.5
269.174	1.46
269.552	1.27
269.931	1.43
270.309	1.3
270.687	1.54
271.066	1.68
271.444	1.4
271.822	1.77
272.2	1.33
272.578	1.48
272.956	1.39
273.334	1.38
273.712	1.37
274.09	1.34
274.468	1.36
274.846	1.2
275.224	1.48
275.602	1.33
275.98	1.55
276.357	1.34
276.735	1.42
277.113	1.48
277.49	1.53
277.868	1.25
278.246	1.49
278.623	1.34
279.001	1.32
279.378	1.47
279.756	1.56
280.133	1.29
280.51	1.44
280.888	1.36
281.265	1.38
281.642	1.41
282.019	1.54
282.396	1.46
282.773	1.4
283.151	1.43
283.528	1.48
283.905	1.51
284.282	1.49
284.659	1.63
285.035	1.38
285.412	1.47
285.789	1.44
286.166	1.35
286.543	1.39
286.919	1.38
287.296	1.38
287.673	1.5
288.049	1.48
288.426	1.73
288.802	1.51
289.179	1.55
289.555	1.64
289.932	1.43
290.308	1.33
290.684	1.38
291.061	1.36
291.437	1.49
291.813	1.4
292.189	1.24
292.565	1.26
292.942	1.32
293.318	1.26
293.694	1.35
294.07	1.3
294.446	1.5
294.822	1.51
295.197	1.44
295.573	1.4
295.949	1.34
296.325	1.5
296.701	1.51
297.076	1.49
297.452	1.57
297.828	1.42
298.203	1.51
298.579	1.33
298.954	1.28
299.33	1.31
299.705	1.34
300.081	1.35
300.456	1.33
300.831	1.3
301.206	1.26
301.582	1.38
301.957	1.29
302.332	1.31
302.707	1.16
303.082	1.23
303.457	1.22
303.832	1.2
304.207	1.13
304.582	1.12
304.957	1.13
305.332	1.14
305.707	1.21
306.082	1.18
306.456	1.18
306.831	1.13
307.206	1.07
307.58	1.1
307.955	1.05
308.33	1.04
308.704	1.02
309.079	1.04
309.453	1.07
309.828	1.06
310.202	0.98
310.576	0.95
310.951	1.01
311.325	0.97
311.699	0.95
312.073	0.95
312.447	0.97
312.821	0.95
313.196	0.95
313.57	0.91
313.944	0.9
314.317	0.85
314.691	0.93
315.065	0.9
315.439	0.9
315.813	0.93
316.187	0.87
316.56	0.93
316.934	0.89
317.308	0.87
317.681	0.86
318.055	0.9
318.428	0.88
318.802	0.92
319.175	0.9
319.549	0.84
319.922	0.86
320.295	0.87
320.669	0.88
321.042	0.9
321.415	0.89
321.788	0.86
322.162	0.86
322.535	0.86
322.908	0.87
323.281	0.85
323.654	0.89
324.027	0.84
324.4	0.89
324.773	0.86
325.145	0.89
325.518	0.86
325.891	0.87
326.264	0.88
326.636	0.86
327.009	0.85
327.382	0.86
327.754	0.9
328.127	0.87
328.499	0.91
328.872	0.87
329.244	0.9
329.616	0.87
329.989	0.92
330.361	0.88
330.733	0.89
331.106	0.88
331.478	0.92
331.85	0.89
332.222	0.93
332.594	0.95
332.966	0.95
333.338	1.01
333.71	0.97
334.082	0.95
334.454	0.97
334.826	0.96
335.197	0.97
335.569	0.97
335.941	0.92
336.312	1.01
336.684	0.98
337.056	1
337.427	1.04
337.799	1.03
338.17	1.04
338.542	1
338.913	1.05
339.284	1.07
339.656	1.05
340.027	1.02
340.398	1.02
340.769	1.06
341.141	1.13
341.512	1.14
341.883	1.05
342.254	1.11
342.625	1.11
342.996	1.07
343.367	1.05
343.738	1.05
344.108	1.07
344.479	1.14
344.85	1.07
345.221	1.16
345.591	1.18
345.962	1.16
346.333	1.14
346.703	1.09
347.074	1.06
347.444	1.09
347.815	1.15
348.185	1.1
348.556	1.17
348.926	1.13
349.296	1.17
349.666	1.1
350.037	1.12
350.407	1.12
350.777	1.23
351.147	1.23
351.517	1.27
351.887	1.22
352.257	1.2
352.627	1.19
352.997	1.21
353.367	1.33
353.737	1.27
354.106	1.36
354.476	1.26
354.846	1.35
355.216	1.37
355.585	1.39
355.955	1.36
356.324	1.36
356.694	1.35
357.063	1.41
357.433	1.42
357.802	1.39
358.171	1.44
358.541	1.37
358.91	1.44
359.279	1.47
359.648	1.44
360.017	1.45
360.387	1.51
360.756	1.38
361.125	1.5
361.494	1.59
361.863	1.49
362.231	1.54
362.6	1.38
362.969	1.62
363.338	1.47
363.707	1.6
364.075	1.73
364.444	1.35
364.813	1.46
365.181	1.53
365.55	1.45
365.918	1.55
366.287	1.72
366.655	1.46
367.024	1.56
367.392	1.57
367.76	1.48
368.128	1.59
368.497	1.5
368.865	1.46
369.233	1.44
369.601	1.62
369.969	1.41
370.337	1.54
370.705	1.63
371.073	1.45
371.441	1.49
371.809	1.55
372.177	1.48
372.544	1.54
372.912	1.45
373.28	1.57
373.647	1.52
374.015	1.59
374.383	1.66
374.75	1.69
375.118	1.5
375.485	1.51
375.853	1.59
376.22	1.57
376.587	1.44
376.955	1.58
377.322	1.52
377.689	1.42
378.056	1.43
378.423	1.42
378.79	1.54
379.157	1.59
379.524	1.58
379.891	1.52
380.258	1.68
380.625	1.47
380.992	1.59
381.359	1.53
381.726	1.64
382.092	1.42
382.459	1.54
382.826	1.6
383.192	1.56
383.559	1.48
383.925	1.54
384.292	1.57
384.658	1.65
385.025	1.69
385.391	1.59
385.757	1.74
386.123	1.74
386.49	1.59
386.856	1.55
387.222	1.61
387.588	1.47
387.954	1.65
388.32	1.62
388.686	1.67
389.052	1.58
389.418	1.64
389.784	1.47
390.15	1.63
390.515	1.4
390.881	1.62
391.247	1.55
391.613	1.82
391.978	1.46
392.344	1.85
392.709	1.57
393.075	1.56
393.44	1.65
393.806	1.7
394.171	1.48
394.536	1.54
394.902	1.58
395.267	1.49
395.632	1.51
395.997	1.44
396.362	1.58
396.727	1.59
397.092	1.59
397.457	1.57
397.822	1.46
398.187	1.56
398.552	1.5
398.917	1.64
399.282	1.55
399.646	1.59
400.011	1.65
400.376	1.46
400.74	1.6
401.105	1.58
401.47	1.5
401.834	1.55
402.199	1.66
402.563	1.56
402.927	1.59
403.292	1.57
403.656	1.47
404.02	1.62
404.384	1.67
404.749	1.6
405.113	1.55
405.477	1.69
405.841	1.58
406.205	1.59
406.569	1.52
406.933	1.45
407.296	1.5
407.66	1.54
408.024	1.73
408.388	1.64
408.752	1.61
409.115	1.53
409.479	1.46
409.842	1.53
410.206	1.45
410.569	1.56
410.933	1.51
411.296	1.41
411.66	1.79
412.023	1.5
412.386	1.51
412.749	1.47
413.113	1.46
413.476	1.59
413.839	1.55
414.202	1.46
414.565	1.4
414.928	1.58
415.291	1.45
415.654	1.4
416.017	1.46
416.38	1.43
416.742	1.46
417.105	1.34
417.468	1.33
417.83	1.52
418.193	1.66
418.556	1.4
418.918	1.41
419.281	1.52
419.643	1.6
420.005	1.47
420.368	1.43
420.73	1.5
421.092	1.62
421.455	1.53
421.817	1.4
422.179	1.44
422.541	1.42
422.903	1.67
423.265	1.53
423.627	1.59
423.989	1.39
424.351	1.42
424.713	1.51
425.075	1.53
425.436	1.47
425.798	1.48
426.16	1.5
426.521	1.5
426.883	1.53
427.245	1.5
427.606	1.43
427.967	1.44
428.329	1.57
428.69	1.47
429.052	1.39
429.413	1.57
429.774	1.53
430.135	1.55
430.497	1.46
430.858	1.43
431.219	1.52
431.58	1.45
431.941	1.54
432.302	1.45
432.663	1.54
433.024	1.57
433.384	1.52
433.745	1.4
434.106	1.51
434.467	1.51
434.827	1.48
435.188	1.48
435.548	1.55
435.909	1.48
436.269	1.5
436.63	1.47
436.99	1.46
437.351	1.36
437.711	1.45
438.071	1.34
438.431	1.41
438.792	1.44
439.152	1.35
439.512	1.41
439.872	1.45
440.232	1.37
440.592	1.49
440.952	1.43
441.312	1.34
441.671	1.41
442.031	1.44
442.391	1.35
442.751	1.38
443.11	1.42
443.47	1.34
443.83	1.29
444.189	1.35
444.549	1.38
444.908	1.32
445.267	1.41
445.627	1.32
445.986	1.32
446.345	1.36
446.705	1.27
447.064	1.33
447.423	1.28
447.782	1.3
448.141	1.29
448.5	1.2
448.859	1.27
449.218	1.26
449.577	1.28
449.936	1.25
450.295	1.24
450.653	1.22
451.012	1.25
451.371	1.23
451.729	1.24
452.088	1.23
452.447	1.23
452.805	1.21
453.163	1.19
453.522	1.19
453.88	1.16
454.239	1.16
454.597	1.13
454.955	1.11
455.313	1.12
455.671	1.14
456.029	1.09
456.388	1.07
456.746	1.1
457.104	1.06
457.461	1.03
457.819	1.04
458.177	1.01
458.535	1
458.893	1.01
459.25	1
459.608	1
459.966	0.96
460.323	0.94
460.681	0.94
461.038	0.92
461.396	0.92
461.753	0.9
462.111	0.9
462.468	0.86
462.825	0.87
463.182	0.84
463.54	0.84
463.897	0.85
464.254	0.81
464.611	0.81
464.968	0.79
465.325	0.78
465.682	0.78
466.039	0.75
466.395	0.75
466.752	0.74
467.109	0.74
467.466	0.72
467.822	0.73
468.179	0.7
468.535	0.68
468.892	0.68
469.248	0.67
469.605	0.65
469.961	0.64
470.318	0.65
470.674	0.64
471.03	0.61
471.386	0.61
471.743	0.6
472.099	0.58
472.455	0.58
472.811	0.56
473.167	0.56
473.523	0.53
473.879	0.53
474.235	0.52
474.59	0.51
474.946	0.51
475.302	0.5
475.657	0.48
476.013	0.49
476.369	0.47
476.724	0.47
477.08	0.46
477.435	0.46
477.791	0.45
478.146	0.43
478.501	0.43
478.857	0.42
479.212	0.41
479.567	0.41
479.922	0.39
480.277	0.38
480.632	0.38
480.987	0.38
481.342	0.37
481.697	0.36
482.052	0.35
482.407	0.35
482.762	0.34
483.116	0.33
483.471	0.33
483.826	0.31
484.18	0.32
484.535	0.3
484.89	0.3
485.244	0.31
485.598	0.3
485.953	0.29
486.307	0.29
486.661	0.28
487.016	0.27
487.37	0.27
487.724	0.27
488.078	0.26
488.432	0.26
488.786	0.25
489.14	0.24
489.494	0.24
489.848	0.23
490.202	0.23
490.556	0.23
490.91	0.23
491.263	0.21
491.617	0.22
491.971	0.21
492.324	0.21
492.678	0.21
493.031	0.21
493.385	0.2
493.738	0.19
494.091	0.19
494.445	0.19
494.798	0.19
495.151	0.18
495.504	0.19
495.857	0.18
496.21	0.18
496.564	0.17
496.916	0.18
497.269	0.17
497.622	0.17
497.975	0.16
498.328	0.17
498.681	0.17
499.033	0.16
499.386	0.16
499.739	0.16
500.091	0.15
500.444	0.15
500.796	0.14
501.149	0.14
501.501	0.15
501.854	0.14
502.206	0.14
502.558	0.15
502.91	0.14
503.263	0.14
503.615	0.14
503.967	0.14
504.319	0.14
504.671	0.13
505.023	0.13
505.375	0.13
505.726	0.13
506.078	0.12
506.43	0.12
506.782	0.12
507.133	0.12
507.485	0.12
507.837	0.13
508.188	0.12
508.54	0.12
508.891	0.13
509.243	0.12
509.594	0.12
509.945	0.12
510.296	0.11
510.648	0.12
510.999	0.11
511.35	0.11
511.701	0.1
512.052	0.11
512.403	0.12
512.754	0.11
513.105	0.11
513.456	0.1
513.807	0.1
514.157	0.11
514.508	0.1
514.859	0.09
515.209	0.1
515.56	0.1
515.91	0.09
516.261	0.09
516.611	0.09
516.962	0.09
517.312	0.09
517.662	0.09
518.013	0.09
518.363	0.1
518.713	0.1
519.063	0.1
519.413	0.09
519.763	0.09
520.113	0.1
520.463	0.1
520.813	0.1
521.163	0.09
521.512	0.1
521.862	0.1
522.212	0.09
522.562	0.1
522.911	0.09
523.261	0.1
523.61	0.09
523.96	0.09
524.309	0.09
524.658	0.1
525.008	0.1
525.357	0.09
525.706	0.1
526.056	0.09
526.405	0.09
526.754	0.09
527.103	0.09
527.452	0.09
527.801	0.1
528.15	0.1
528.499	0.09
528.847	0.09
529.196	0.1
529.545	0.09
529.893	0.1
530.242	0.1
530.591	0.1
530.939	0.1
531.288	0.1
531.636	0.1
531.985	0.1
532.333	0.1
532.681	0.1
533.029	0.1
533.378	0.1
533.726	0.09
534.074	0.1
534.422	0.09
534.77	0.1
535.118	0.1
535.466	0.09
535.814	0.09
536.162	0.09
536.509	0.1
536.857	0.1
537.205	0.1
537.552	0.1
537.9	0.1
538.248	0.09
538.595	0.09
538.943	0.1
539.29	0.09
539.637	0.09
539.985	0.09
540.332	0.08
540.679	0.08
541.026	0.08
541.373	0.09
541.721	0.08
542.068	0.08
542.415	0.09
542.762	0.08
543.108	0.08
543.455	0.09
543.802	0.07
544.149	0.08
544.496	0.09
544.842	0.08
545.189	0.08
545.535	0.08
545.882	0.08
546.228	0.08
546.575	0.08
546.921	0.08
547.267	0.08
547.614	0.08
547.96	0.08
548.306	0.08
548.652	0.08
548.998	0.09
549.344	0.08
549.69	0.09
550.036	0.08
550.382	0.09
550.728	0.09
551.074	0.09
551.42	0.09
551.765	0.09
552.111	0.09
552.457	0.1
552.802	0.09
553.148	0.09
553.493	0.09
553.839	0.09
554.184	0.09
554.529	0.08
554.875	0.09
555.22	0.09
555.565	0.09
555.91	0.09
556.255	0.09
556.6	0.09
556.945	0.08
557.29	0.09
557.635	0.09
557.98	0.09
558.325	0.09
558.67	0.09
559.014	0.09
559.359	0.09
559.704	0.09
560.048	0.08
560.393	0.09
560.737	0.08
561.082	0.09
561.426	0.08
561.77	0.08
562.115	0.07
562.459	0.07
562.803	0.08
563.147	0.08
563.491	0.08
563.835	0.09
564.179	0.08
564.523	0.07
564.867	0.08
565.211	0.08
565.555	0.09
565.899	0.09
566.242	0.09
566.586	0.08
566.93	0.08
567.273	0.08
567.617	0.1
567.96	0.09
568.304	0.09
568.647	0.08
568.99	0.09
569.334	0.1
569.677	0.1
570.02	0.09
570.363	0.09
570.706	0.08
571.049	0.08
571.392	0.09
571.735	0.08
572.078	0.08
572.421	0.1
572.764	0.09
573.106	0.09
573.449	0.08
573.792	0.09
574.134	0.09
574.477	0.09
574.819	0.09
575.162	0.09
575.504	0.09
575.847	0.09
576.189	0.08
576.531	0.1
576.873	0.08
577.215	0.09
577.558	0.09
577.9	0.08
578.242	0.08
578.584	0.08
578.926	0.08
579.267	0.08
579.609	0.08
579.951	0.08
580.293	0.08
580.634	0.08
580.976	0.08
581.318	0.07
581.659	0.08
582.001	0.07
582.342	0.08
582.683	0.08
583.025	0.07
583.366	0.08
583.707	0.08
584.049	0.08
584.39	0.08
584.731	0.08
585.072	0.08
585.413	0.09
585.754	0.08
586.095	0.09
586.435	0.08
586.776	0.09
587.117	0.08
587.458	0.09
587.798	0.09
588.139	0.08
588.48	0.08
588.82	0.08
589.161	0.08
589.501	0.08
589.841	0.08
590.182	0.07
590.522	0.08
590.862	0.09
591.202	0.08
591.542	0.08
591.882	0.08
592.222	0.08
592.562	0.08
592.902	0.07
593.242	0.08
593.582	0.09
593.922	0.08
594.261	0.08
594.601	0.08
594.941	0.08
595.28	0.08
595.62	0.08
595.959	0.08
596.299	0.08
596.638	0.08
596.977	0.08
597.317	0.08
597.656	0.08
597.995	0.08
598.334	0.09
598.673	0.08
599.012	0.08
599.351	0.08
599.69	0.08
600.029	0.08
600.368	0.08
600.707	0.07
601.046	0.08
601.384	0.08
601.723	0.08
602.061	0.07
602.4	0.08
602.738	0.08
603.077	0.08
603.415	0.07
603.754	0.08
604.092	0.08
604.43	0.07
604.768	0.08
605.107	0.08
605.445	0.08
605.783	0.08
606.121	0.08
606.459	0.08
606.796	0.08
607.134	0.07
607.472	0.08
607.81	0.07
608.148	0.08
608.485	0.08
608.823	0.08
609.16	0.07
609.498	0.08
609.835	0.08
610.173	0.08
610.51	0.08
610.847	0.08
611.185	0.08
611.522	0.08
611.859	0.08
612.196	0.09
612.533	0.08
612.87	0.09
613.207	0.09
613.544	0.09
613.881	0.09
614.217	0.09
614.554	0.09
614.891	0.09
615.228	0.09
615.564	0.09
615.901	0.09
616.237	0.09
616.574	0.09
616.91	0.1
617.246	0.09
617.583	0.09
617.919	0.09
618.255	0.09
618.591	0.09
618.927	0.09
619.263	0.1
619.599	0.09
619.935	0.09
620.271	0.09
620.607	0.09
620.943	0.09
621.279	0.1
621.614	0.09
621.95	0.09
622.286	0.08
622.621	0.08
622.957	0.08
623.292	0.08
623.627	0.08
623.963	0.08
624.298	0.08
624.633	0.08
624.968	0.08
625.304	0.08
625.639	0.08
625.974	0.08
626.309	0.08
626.644	0.08
626.979	0.08
627.313	0.08
627.648	0.07
627.983	0.08
628.318	0.08
628.652	0.07
628.987	0.08
629.321	0.08
629.656	0.07
629.99	0.07
630.325	0.08
630.659	0.08
630.993	0.07
631.327	0.08
631.662	0.07
631.996	0.08
632.33	0.08
632.664	0.08
632.998	0.07
633.332	0.07
633.666	0.07
633.999	0.08
634.333	0.06
634.667	0.07
635.001	0.07
635.334	0.08
635.668	0.07
636.001	0.07
636.335	0.07
636.668	0.08
637.001	0.06
637.335	0.07
637.668	0.07
638.001	0.06
638.334	0.07
638.668	0.07
639.001	0.07
639.334	0.06
639.667	0.07
639.999	0.07
640.332	0.06
640.665	0.06
640.998	0.06
641.331	0.07
641.663	0.06
641.996	0.07
642.328	0.07
642.661	0.06
642.993	0.07
643.326	0.08
643.658	0.06
643.99	0.07
644.323	0.07
644.655	0.07
644.987	0.07
645.319	0.07
645.651	0.08
645.983	0.07
646.315	0.07
646.647	0.07
646.979	0.08
647.31	0.07
647.642	0.07
647.974	0.07
648.305	0.08
648.637	0.08
648.968	0.08
649.3	0.08
649.631	0.08
649.963	0.07
650.294	0.08
650.625	0.07
650.957	0.07
651.288	0.08
651.619	0.08
651.95	0.08
652.281	0.08
652.612	0.08
652.943	0.07
653.274	0.08
653.604	0.07
653.935	0.08
654.266	0.07
654.596	0.07
654.927	0.07
655.258	0.07
655.588	0.08
655.918	0.07
656.249	0.06
656.579	0.07
656.909	0.08
657.24	0.07
657.57	0.08
657.9	0.08
658.23	0.08
658.56	0.08
658.89	0.08
659.22	0.07
659.55	0.08
659.88	0.08
660.209	0.08
660.539	0.09
660.869	0.08
661.198	0.08
661.528	0.08
661.857	0.07
662.187	0.08
662.516	0.08
662.846	0.07
663.175	0.08
663.504	0.07
663.833	0.07
664.163	0.07
664.492	0.07
664.821	0.07
665.15	0.07
665.479	0.08
665.807	0.07
666.136	0.07
666.465	0.08
666.794	0.07
667.122	0.07
667.451	0.07
667.78	0.07
668.108	0.07
668.437	0.06
668.765	0.07
669.093	0.07
669.422	0.07
669.75	0.07
670.078	0.07
670.406	0.08
670.734	0.07
671.062	0.07
671.39	0.07
671.718	0.07
672.046	0.07
672.374	0.07
672.702	0.07
673.029	0.07
673.357	0.07
673.685	0.07
674.012	0.07
674.34	0.07
674.667	0.07
674.995	0.07
675.322	0.07
675.649	0.07
675.977	0.07
676.304	0.06
676.631	0.07
676.958	0.07
677.285	0.06
677.612	0.06
677.939	0.06
678.266	0.07
678.593	0.06
678.92	0.06
679.246	0.06
679.573	0.07
679.9	0.06
680.226	0.06
680.553	0.06
680.879	0.06
681.206	0.06
681.532	0.06
681.858	0.06
682.184	0.05
682.511	0.06
682.837	0.06
683.163	0.06
683.489	0.06
683.815	0.06
684.141	0.06
684.467	0.06
684.793	0.06
685.118	0.06
685.444	0.07
685.77	0.06
686.095	0.06
686.421	0.06
686.746	0.06
687.072	0.06
687.397	0.06
687.723	0.07
688.048	0.07
688.373	0.06
688.698	0.06
689.023	0.06
689.349	0.06
689.674	0.06
689.999	0.06
690.323	0.05
690.648	0.05
690.973	0.04
691.298	0.05
691.623	0.04
691.947	0.05
692.272	0.05
692.596	0.05
692.921	0.05
693.245	0.05
693.57	0.06
693.894	0.05
694.218	0.05
694.543	0.05
694.867	0.05
695.191	0.05
695.515	0.05
695.839	0.05
696.163	0.05
696.487	0.05
696.811	0.05
697.135	0.06
697.458	0.06
697.782	0.05
698.106	0.05
698.429	0.05
698.753	0.05
699.076	0.05
699.4	0.05
699.723	0.05
700.046	0.05
700.37	0.06
700.693	0.06
701.016	0.05
701.339	0.05
701.662	0.05
701.985	0.06
702.308	0.05
702.631	0.05
702.954	0.06
703.277	0.06
703.599	0.05
703.922	0.05
704.245	0.05
704.567	0.05
704.89	0.06
705.212	0.06
705.535	0.05
705.857	0.04
706.179	0.04
706.502	0.05
706.824	0.05
707.146	0.05
707.468	0.06
707.79	0.04
708.112	0.05
708.434	0.06
708.756	0.05
709.078	0.05
709.399	0.04
709.721	0.05
710.043	0.05
710.364	0.05
710.686	0.06
711.007	0.05
711.329	0.06
711.65	0.05
711.972	0.06
712.293	0.05
712.614	0.06
712.935	0.05
713.256	0.05
713.577	0.06
713.898	0.05
714.219	0.05
714.54	0.05
714.861	0.05
715.182	0.05
715.503	0.04
715.823	0.05
716.144	0.05
716.464	0.04
716.785	0.05
717.105	0.04
717.426	0.05
717.746	0.04
718.066	0.04
718.387	0.04
718.707	0.03
719.027	0.04
719.347	0.04
719.667	0.04
719.987	0.04
720.307	0.03
720.627	0.03
720.947	0.03
721.266	0.03
721.586	0.03
721.906	0.03
722.225	0.03
722.545	0.03
722.864	0.03
723.184	0.04
723.503	0.03
723.823	0.04
724.142	0.03
724.461	0.03
