Data from 12-12-AQDScycling_Absorbance__119__00119.txt Node

Date: Tue Dec 12 11:26:29 EST 2023
User: kyuminlee
Spectrometer: FLMS00943
Trigger mode: 0
Integration Time (sec): 1.000000E-1
Scans to average: 1
Electric dark correction enabled: true
Nonlinearity correction enabled: false
Boxcar width: 0
XAxis mode: Wavelengths
Number of Pixels in Spectrum: 2048
>>>>>Begin Spectral Data<<<<<
179.651	-0
180.037	-0
180.424	-0
180.81	-0.08
181.197	0.28
181.583	0.23
181.97	-0
182.356	-0
182.743	-0
183.129	0.23
183.515	-0
183.901	-2.4
184.288	1.44
184.674	-0
185.06	-0
185.446	-0
185.832	-0
186.218	0.13
186.604	-0.04
186.99	-0
187.376	0.62
187.762	0.22
188.148	-0.03
188.534	-0.23
188.92	0.15
189.305	0.01
189.691	0.19
190.077	0.14
190.463	0.13
190.848	-0.01
191.234	0.03
191.619	0.07
192.005	0.25
192.391	0.12
192.776	0.12
193.161	0.27
193.547	0.24
193.932	0.16
194.318	-0.01
194.703	0.06
195.088	0.06
195.473	0.33
195.859	0.19
196.244	0.2
196.629	0.11
197.014	0.18
197.399	0.29
197.784	0.04
198.169	0.21
198.554	0.19
198.939	0.15
199.324	0.27
199.709	0.09
200.094	0.09
200.478	0.2
200.863	0.25
201.248	0.16
201.633	0.15
202.017	0.12
202.402	0.19
202.787	0.1
203.171	0.1
203.556	0.15
203.94	0.23
204.325	0.39
204.709	0.16
205.093	0.02
205.478	0.16
205.862	0.09
206.246	0.22
206.631	0.18
207.015	0.24
207.399	0.09
207.783	0.16
208.167	0.12
208.551	0.33
208.935	0.13
209.319	0.04
209.703	0.14
210.087	0.27
210.471	0.17
210.855	0.16
211.239	0.13
211.623	0.26
212.007	0.22
212.39	0.14
212.774	0.18
213.158	0.11
213.541	0.25
213.925	0.17
214.309	0.28
214.692	0.26
215.076	0.2
215.459	0.12
215.842	0.14
216.226	0.21
216.609	0.37
216.993	0.13
217.376	0.47
217.759	0.14
218.142	0.3
218.525	0.68
218.909	0.46
219.292	0.32
219.675	0.38
220.058	0.41
220.441	0.48
220.824	0.41
221.207	0.63
221.59	0.54
221.973	0.47
222.355	0.53
222.738	0.91
223.121	0.62
223.504	0.58
223.886	0.67
224.269	0.76
224.652	0.71
225.034	0.79
225.417	0.63
225.799	0.77
226.182	0.93
226.564	0.92
226.947	0.75
227.329	0.85
227.711	1.09
228.094	0.92
228.476	0.74
228.858	0.77
229.24	0.78
229.623	0.87
230.005	0.91
230.387	0.81
230.769	0.74
231.151	0.93
231.533	0.96
231.915	0.92
232.297	1.04
232.679	0.87
233.061	0.95
233.442	1.06
233.824	1.04
234.206	1.13
234.588	1.15
234.969	1.1
235.351	0.93
235.733	0.99
236.114	1.16
236.496	1.16
236.877	1.07
237.259	1.1
237.64	1.07
238.022	0.93
238.403	1.09
238.784	1.05
239.165	0.96
239.547	1.21
239.928	1.01
240.309	0.95
240.69	0.97
241.071	0.98
241.452	1.07
241.834	1.05
242.215	1.07
242.595	1.03
242.976	1.18
243.357	1.3
243.738	1.1
244.119	1.23
244.5	1.07
244.881	1.08
245.261	1.2
245.642	1.15
246.023	1.17
246.403	1.16
246.784	1.17
247.164	1.3
247.545	1.29
247.925	1.38
248.306	1.19
248.686	1.22
249.067	1.27
249.447	1.4
249.827	1.5
250.207	1.44
250.588	1.26
250.968	1.43
251.348	1.32
251.728	1.39
252.108	1.46
252.488	1.35
252.868	1.39
253.248	1.32
253.628	1.34
254.008	1.47
254.388	1.29
254.768	1.41
255.147	1.5
255.527	1.45
255.907	1.24
256.287	1.27
256.666	1.36
257.046	1.53
257.425	1.58
257.805	1.36
258.184	1.4
258.564	1.37
258.943	1.32
259.323	1.51
259.702	1.42
260.081	1.5
260.461	1.42
260.84	1.38
261.219	1.64
261.598	1.51
261.977	1.46
262.356	1.54
262.736	1.58
263.115	1.58
263.494	1.4
263.873	1.39
264.251	1.57
264.63	1.49
265.009	1.43
265.388	1.45
265.767	1.27
266.145	1.41
266.524	1.34
266.903	1.32
267.281	1.45
267.66	1.45
268.039	1.39
268.417	1.51
268.796	1.34
269.174	1.37
269.552	1.34
269.931	1.38
270.309	1.37
270.687	1.53
271.066	1.61
271.444	1.39
271.822	1.4
272.2	1.49
272.578	1.34
272.956	1.49
273.334	1.4
273.712	1.37
274.09	1.63
274.468	1.5
274.846	1.29
275.224	1.43
275.602	1.4
275.98	1.54
276.357	1.48
276.735	1.39
277.113	1.4
277.49	1.32
277.868	1.3
278.246	1.46
278.623	1.34
279.001	1.28
279.378	1.34
279.756	1.47
280.133	1.5
280.51	1.4
280.888	1.42
281.265	1.36
281.642	1.31
282.019	1.39
282.396	1.49
282.773	1.4
283.151	1.48
283.528	1.47
283.905	1.39
284.282	1.51
284.659	1.48
285.035	1.42
285.412	1.32
285.789	1.56
286.166	1.39
286.543	1.48
286.919	1.52
287.296	1.37
287.673	1.52
288.049	1.45
288.426	1.68
288.802	1.67
289.179	1.32
289.555	1.46
289.932	1.41
290.308	1.27
290.684	1.32
291.061	1.26
291.437	1.47
291.813	1.41
292.189	1.29
292.565	1.31
292.942	1.41
293.318	1.24
293.694	1.45
294.07	1.34
294.446	1.36
294.822	1.46
295.197	1.36
295.573	1.41
295.949	1.54
296.325	1.42
296.701	1.44
297.076	1.46
297.452	1.5
297.828	1.39
298.203	1.55
298.579	1.4
298.954	1.31
299.33	1.31
299.705	1.35
300.081	1.33
300.456	1.22
300.831	1.26
301.206	1.16
301.582	1.29
301.957	1.18
302.332	1.29
302.707	1.2
303.082	1.11
303.457	1.17
303.832	1.1
304.207	1.07
304.582	1.04
304.957	1.04
305.332	1.03
305.707	1.03
306.082	1.03
306.456	0.96
306.831	0.94
307.206	0.94
307.58	0.93
307.955	0.87
308.33	0.9
308.704	0.87
309.079	0.86
309.453	0.87
309.828	0.86
310.202	0.79
310.576	0.81
310.951	0.81
311.325	0.75
311.699	0.75
312.073	0.76
312.447	0.73
312.821	0.73
313.196	0.72
313.57	0.69
313.944	0.67
314.317	0.71
314.691	0.68
315.065	0.69
315.439	0.65
315.813	0.66
316.187	0.65
316.56	0.66
316.934	0.62
317.308	0.62
317.681	0.61
318.055	0.62
318.428	0.61
318.802	0.62
319.175	0.6
319.549	0.59
319.922	0.61
320.295	0.56
320.669	0.61
321.042	0.57
321.415	0.59
321.788	0.56
322.162	0.56
322.535	0.57
322.908	0.57
323.281	0.56
323.654	0.58
324.027	0.55
324.4	0.56
324.773	0.55
325.145	0.57
325.518	0.54
325.891	0.54
326.264	0.56
326.636	0.57
327.009	0.55
327.382	0.57
327.754	0.58
328.127	0.55
328.499	0.57
328.872	0.57
329.244	0.56
329.616	0.57
329.989	0.58
330.361	0.59
330.733	0.58
331.106	0.59
331.478	0.63
331.85	0.59
332.222	0.6
332.594	0.65
332.966	0.63
333.338	0.66
333.71	0.66
334.082	0.69
334.454	0.66
334.826	0.67
335.197	0.68
335.569	0.71
335.941	0.69
336.312	0.71
336.684	0.7
337.056	0.74
337.427	0.78
337.799	0.75
338.17	0.76
338.542	0.77
338.913	0.78
339.284	0.79
339.656	0.77
340.027	0.78
340.398	0.85
340.769	0.82
341.141	0.84
341.512	0.81
341.883	0.85
342.254	0.86
342.625	0.88
342.996	0.87
343.367	0.9
343.738	0.9
344.108	0.95
344.479	1
344.85	0.89
345.221	1.03
345.591	0.94
345.962	1
346.333	0.96
346.703	0.97
347.074	0.99
347.444	1.03
347.815	1.04
348.185	1.05
348.556	1.04
348.926	1.05
349.296	1.09
349.666	1.07
350.037	1.06
350.407	1.06
350.777	1.16
351.147	1.18
351.517	1.18
351.887	1.31
352.257	1.28
352.627	1.13
352.997	1.26
353.367	1.27
353.737	1.31
354.106	1.36
354.476	1.28
354.846	1.34
355.216	1.34
355.585	1.41
355.955	1.36
356.324	1.46
356.694	1.43
357.063	1.43
357.433	1.36
357.802	1.49
358.171	1.5
358.541	1.43
358.91	1.54
359.279	1.51
359.648	1.45
360.017	1.57
360.387	1.4
360.756	1.55
361.125	1.77
361.494	1.57
361.863	1.43
362.231	1.54
362.6	1.53
362.969	1.48
363.338	1.38
363.707	1.64
364.075	1.55
364.444	1.38
364.813	1.43
365.181	1.53
365.55	1.52
365.918	1.75
366.287	1.54
366.655	1.56
367.024	1.59
367.392	1.62
367.76	1.47
368.128	1.57
368.497	1.56
368.865	1.44
369.233	1.48
369.601	1.47
369.969	1.42
370.337	1.56
370.705	1.47
371.073	1.56
371.441	1.65
371.809	1.47
372.177	1.47
372.544	1.58
372.912	1.49
373.28	1.65
373.647	1.63
374.015	1.65
374.383	2.05
374.75	1.78
375.118	1.55
375.485	1.61
375.853	1.55
376.22	1.46
376.587	1.63
376.955	1.64
377.322	1.68
377.689	1.52
378.056	1.48
378.423	1.4
378.79	1.54
379.157	1.45
379.524	1.55
379.891	1.46
380.258	1.68
380.625	1.52
380.992	1.64
381.359	1.6
381.726	1.73
382.092	1.49
382.459	1.43
382.826	1.59
383.192	1.58
383.559	1.72
383.925	1.61
384.292	1.6
384.658	1.73
385.025	1.72
385.391	1.78
385.757	1.58
386.123	1.55
386.49	1.58
386.856	1.51
387.222	1.51
387.588	1.53
387.954	1.62
388.32	1.59
388.686	1.63
389.052	1.46
389.418	1.62
389.784	1.52
390.15	1.65
390.515	1.43
390.881	1.52
391.247	1.54
391.613	1.69
391.978	1.46
392.344	1.72
392.709	1.62
393.075	1.55
393.44	1.55
393.806	1.48
394.171	1.46
394.536	1.46
394.902	1.56
395.267	1.53
395.632	1.53
395.997	1.54
396.362	1.55
396.727	1.55
397.092	1.5
397.457	1.48
397.822	1.48
398.187	1.59
398.552	1.47
398.917	1.6
399.282	1.6
399.646	1.51
400.011	1.78
400.376	1.42
400.74	1.6
401.105	1.52
401.47	1.6
401.834	1.48
402.199	1.59
402.563	1.66
402.927	1.67
403.292	1.83
403.656	1.63
404.02	1.6
404.384	1.83
404.749	1.55
405.113	1.62
405.477	1.6
405.841	1.61
406.205	1.56
406.569	1.47
406.933	1.55
407.296	1.42
407.66	1.56
408.024	1.5
408.388	1.9
408.752	1.45
409.115	1.78
409.479	1.76
409.842	1.63
410.206	1.6
410.569	1.52
410.933	1.56
411.296	1.52
411.66	1.63
412.023	1.41
412.386	1.5
412.749	1.39
413.113	1.42
413.476	1.4
413.839	1.51
414.202	1.48
414.565	1.39
414.928	1.62
415.291	1.39
415.654	1.49
416.017	1.51
416.38	1.5
416.742	1.49
417.105	1.61
417.468	1.53
417.83	1.56
418.193	1.63
418.556	1.45
418.918	1.4
419.281	1.51
419.643	1.55
420.005	1.51
420.368	1.59
420.73	1.44
421.092	1.59
421.455	1.65
421.817	1.45
422.179	1.41
422.541	1.68
422.903	1.69
423.265	1.62
423.627	1.65
423.989	1.48
424.351	1.52
424.713	1.49
425.075	1.49
425.436	1.49
425.798	1.51
426.16	1.51
426.521	1.52
426.883	1.69
427.245	1.51
427.606	1.44
427.967	1.42
428.329	1.51
428.69	1.6
429.052	1.37
429.413	1.54
429.774	1.5
430.135	1.63
430.497	1.58
430.858	1.56
431.219	1.61
431.58	1.5
431.941	1.63
432.302	1.48
432.663	1.54
433.024	1.74
433.384	1.66
433.745	1.43
434.106	1.63
434.467	1.58
434.827	1.5
435.188	1.56
435.548	1.66
435.909	1.6
436.269	1.62
436.63	1.5
436.99	1.52
437.351	1.41
437.711	1.62
438.071	1.5
438.431	1.46
438.792	1.53
439.152	1.5
439.512	1.5
439.872	1.45
440.232	1.46
440.592	1.5
440.952	1.47
441.312	1.44
441.671	1.44
442.031	1.48
442.391	1.45
442.751	1.49
443.11	1.53
443.47	1.39
443.83	1.4
444.189	1.4
444.549	1.44
444.908	1.41
445.267	1.51
445.627	1.46
445.986	1.44
446.345	1.37
446.705	1.4
447.064	1.47
447.423	1.41
447.782	1.39
448.141	1.38
448.5	1.3
448.859	1.33
449.218	1.35
449.577	1.36
449.936	1.39
450.295	1.33
450.653	1.35
451.012	1.35
451.371	1.32
451.729	1.36
452.088	1.33
452.447	1.32
452.805	1.32
453.163	1.31
453.522	1.3
453.88	1.27
454.239	1.28
454.597	1.29
454.955	1.26
455.313	1.23
455.671	1.25
456.029	1.24
456.388	1.21
456.746	1.19
457.104	1.2
457.461	1.16
457.819	1.14
458.177	1.14
458.535	1.1
458.893	1.1
459.25	1.07
459.608	1.09
459.966	1.05
460.323	1.05
460.681	1.02
461.038	1.02
461.396	1.01
461.753	1.01
462.111	0.99
462.468	0.96
462.825	0.96
463.182	0.94
463.54	0.92
463.897	0.94
464.254	0.91
464.611	0.88
464.968	0.87
465.325	0.86
465.682	0.85
466.039	0.83
466.395	0.82
466.752	0.82
467.109	0.8
467.466	0.78
467.822	0.78
468.179	0.75
468.535	0.75
468.892	0.75
469.248	0.73
469.605	0.7
469.961	0.7
470.318	0.71
470.674	0.7
471.03	0.68
471.386	0.67
471.743	0.64
472.099	0.63
472.455	0.63
472.811	0.61
473.167	0.61
473.523	0.59
473.879	0.59
474.235	0.56
474.59	0.55
474.946	0.54
475.302	0.55
475.657	0.51
476.013	0.51
476.369	0.5
476.724	0.5
477.08	0.49
477.435	0.48
477.791	0.47
478.146	0.47
478.501	0.46
478.857	0.45
479.212	0.45
479.567	0.43
479.922	0.42
480.277	0.41
480.632	0.4
480.987	0.39
481.342	0.39
481.697	0.37
482.052	0.36
482.407	0.36
482.762	0.35
483.116	0.34
483.471	0.33
483.826	0.32
484.18	0.32
484.535	0.31
484.89	0.3
485.244	0.3
485.598	0.3
485.953	0.29
486.307	0.28
486.661	0.28
487.016	0.27
487.37	0.27
487.724	0.25
488.078	0.25
488.432	0.25
488.786	0.25
489.14	0.24
489.494	0.23
489.848	0.22
490.202	0.21
490.556	0.21
490.91	0.21
491.263	0.2
491.617	0.2
491.971	0.2
492.324	0.19
492.678	0.19
493.031	0.18
493.385	0.18
493.738	0.17
494.091	0.17
494.445	0.16
494.798	0.16
495.151	0.15
495.504	0.16
495.857	0.16
496.21	0.15
496.564	0.14
496.916	0.15
497.269	0.14
497.622	0.14
497.975	0.14
498.328	0.14
498.681	0.13
499.033	0.13
499.386	0.13
499.739	0.11
500.091	0.12
500.444	0.11
500.796	0.11
501.149	0.11
501.501	0.11
501.854	0.11
502.206	0.1
502.558	0.1
502.91	0.1
503.263	0.1
503.615	0.1
503.967	0.1
504.319	0.09
504.671	0.09
505.023	0.09
505.375	0.08
505.726	0.08
506.078	0.08
506.43	0.07
506.782	0.07
507.133	0.08
507.485	0.07
507.837	0.08
508.188	0.08
508.54	0.08
508.891	0.08
509.243	0.07
509.594	0.07
509.945	0.07
510.296	0.06
510.648	0.06
510.999	0.06
511.35	0.06
511.701	0.06
512.052	0.06
512.403	0.06
512.754	0.06
513.105	0.05
513.456	0.05
513.807	0.04
514.157	0.05
514.508	0.05
514.859	0.04
515.209	0.04
515.56	0.04
515.91	0.04
516.261	0.05
516.611	0.04
516.962	0.04
517.312	0.04
517.662	0.04
518.013	0.04
518.363	0.04
518.713	0.04
519.063	0.04
519.413	0.04
519.763	0.04
520.113	0.04
520.463	0.04
520.813	0.05
521.163	0.04
521.512	0.04
521.862	0.04
522.212	0.04
522.562	0.04
522.911	0.03
523.261	0.03
523.61	0.03
523.96	0.03
524.309	0.04
524.658	0.04
525.008	0.03
525.357	0.03
525.706	0.03
526.056	0.03
526.405	0.03
526.754	0.03
527.103	0.03
527.452	0.03
527.801	0.03
528.15	0.04
528.499	0.03
528.847	0.04
529.196	0.04
529.545	0.04
529.893	0.03
530.242	0.03
530.591	0.04
530.939	0.04
531.288	0.03
531.636	0.03
531.985	0.03
532.333	0.03
532.681	0.03
533.029	0.03
533.378	0.03
533.726	0.03
534.074	0.03
534.422	0.03
534.77	0.03
535.118	0.03
535.466	0.03
535.814	0.02
536.162	0.03
536.509	0.04
536.857	0.03
537.205	0.03
537.552	0.03
537.9	0.03
538.248	0.02
538.595	0.03
538.943	0.03
539.29	0.03
539.637	0.02
539.985	0.02
540.332	0.02
540.679	0.01
541.026	0.01
541.373	0.02
541.721	0.01
542.068	0.02
542.415	0.01
542.762	0.01
543.108	0.01
543.455	0.01
543.802	0.01
544.149	0.01
544.496	0.02
544.842	0.01
545.189	0
545.535	0.01
545.882	0.01
546.228	0.01
546.575	0.01
546.921	0.01
547.267	0.01
547.614	0.01
547.96	0.01
548.306	0.01
548.652	0.01
548.998	0.02
549.344	0.01
549.69	0.02
550.036	0.02
550.382	0.01
550.728	0.02
551.074	0.02
551.42	0.02
551.765	0.03
552.111	0.01
552.457	0.02
552.802	0.02
553.148	0.01
553.493	0.01
553.839	0.02
554.184	0.02
554.529	0.01
554.875	0.02
555.22	0.02
555.565	0.02
555.91	0.02
556.255	0.03
556.6	0.02
556.945	0.01
557.29	0.01
557.635	0.02
557.98	0.02
558.325	0.02
558.67	0.02
559.014	0.01
559.359	0.02
559.704	0.01
560.048	0.01
560.393	0.01
560.737	0
561.082	0
561.426	-0
561.77	0.01
562.115	0
562.459	0.01
562.803	0.01
563.147	0
563.491	0.01
563.835	0.01
564.179	0.01
564.523	0.01
564.867	0
565.211	0.01
565.555	0.01
565.899	0.02
566.242	0.01
566.586	0.02
566.93	0.01
567.273	0.02
567.617	0.01
567.96	0.02
568.304	0.02
568.647	0.01
568.99	0.02
569.334	0.01
569.677	0.01
570.02	0.02
570.363	0.02
570.706	0.01
571.049	0.01
571.392	0.02
571.735	0.01
572.078	0.01
572.421	0.02
572.764	0.02
573.106	0.01
573.449	0.01
573.792	0.02
574.134	0.01
574.477	0.02
574.819	0.01
575.162	0.02
575.504	0.01
575.847	0.01
576.189	0.01
576.531	0.01
576.873	0.01
577.215	0.01
577.558	0.01
577.9	0.01
578.242	0.01
578.584	0.01
578.926	0.01
579.267	0.01
579.609	0.01
579.951	0.01
580.293	0.01
580.634	0.01
580.976	0.01
581.318	0
581.659	0
582.001	0.01
582.342	0
582.683	0.01
583.025	0
583.366	-0
583.707	0.01
584.049	0.01
584.39	0
584.731	0.01
585.072	0.01
585.413	0.01
585.754	0.01
586.095	0.01
586.435	0.01
586.776	0.01
587.117	0.01
587.458	0.01
587.798	0
588.139	0.01
588.48	0.01
588.82	0
589.161	0.01
589.501	0
589.841	0.01
590.182	0
590.522	0
590.862	0.01
591.202	0.01
591.542	0
591.882	0.01
592.222	0
592.562	0.01
592.902	0
593.242	0
593.582	0.02
593.922	0.01
594.261	0.01
594.601	0.01
594.941	0.01
595.28	0.01
595.62	0.02
595.959	0.01
596.299	0.01
596.638	0
596.977	0.01
597.317	0.01
597.656	0.01
597.995	0
598.334	0.01
598.673	0
599.012	-0
599.351	0.01
599.69	0
600.029	0.01
600.368	0.01
600.707	0.01
601.046	0.01
601.384	0.01
601.723	0.01
602.061	0
602.4	0
602.738	0.01
603.077	0
603.415	0
603.754	0.01
604.092	0.01
604.43	0.01
604.768	0.01
605.107	0.01
605.445	0
605.783	-0
606.121	0.01
606.459	0.01
606.796	0.01
607.134	0
607.472	0
607.81	0.01
608.148	0
608.485	0.01
608.823	0.01
609.16	0.01
609.498	0.01
609.835	0.01
610.173	0.01
610.51	0.01
610.847	0.01
611.185	0.01
611.522	0.02
611.859	0.01
612.196	0.02
612.533	0.02
612.87	0.03
613.207	0.02
613.544	0.02
613.881	0.04
614.217	0.03
614.554	0.02
614.891	0.02
615.228	0.03
615.564	0.03
615.901	0.03
616.237	0.02
616.574	0.03
616.91	0.03
617.246	0.03
617.583	0.03
617.919	0.03
618.255	0.03
618.591	0.02
618.927	0.02
619.263	0.03
619.599	0.03
619.935	0.02
620.271	0.02
620.607	0.02
620.943	0.02
621.279	0.03
621.614	0.03
621.95	0.02
622.286	0.02
622.621	0.02
622.957	0.02
623.292	0.01
623.627	0.02
623.963	0.01
624.298	0.02
624.633	0.02
624.968	0.01
625.304	0.02
625.639	0.01
625.974	0.01
626.309	0.01
626.644	0.01
626.979	0.02
627.313	0.02
627.648	0.01
627.983	0.02
628.318	0.01
628.652	0.01
628.987	0.01
629.321	0.02
629.656	0.01
629.99	0.01
630.325	0.02
630.659	0.02
630.993	0.01
631.327	0.02
631.662	0
631.996	0.01
632.33	0.02
632.664	0.01
632.998	0.01
633.332	0.01
633.666	0.01
633.999	0.01
634.333	0
634.667	0.01
635.001	0
635.334	0
635.668	0
636.001	0
636.335	0.01
636.668	0.01
637.001	0
637.335	0
637.668	0.01
638.001	0
638.334	0.01
638.668	0.01
639.001	0
639.334	0.01
639.667	0
639.999	0.01
640.332	0.01
640.665	0.01
640.998	0.01
641.331	0.01
641.663	0.01
641.996	0.01
642.328	0.02
642.661	0.01
642.993	0.01
643.326	0.02
643.658	0.01
643.99	0.01
644.323	0.01
644.655	0.01
644.987	0.01
645.319	0.03
645.651	0.02
645.983	0.01
646.315	0.01
646.647	0.02
646.979	0.03
647.31	0.02
647.642	0.01
647.974	0.02
648.305	0.03
648.637	0.02
648.968	0.02
649.3	0.02
649.631	0.03
649.963	0.02
650.294	0.02
650.625	0.02
650.957	0.02
651.288	0.02
651.619	0.02
651.95	0.03
652.281	0.02
652.612	0.02
652.943	0.02
653.274	0.03
653.604	0.02
653.935	0.02
654.266	0.02
654.596	0.01
654.927	0.02
655.258	0.03
655.588	0.03
655.918	0.02
656.249	0
656.579	0.02
656.909	0.02
657.24	0.02
657.57	0.02
657.9	0.03
658.23	0.02
658.56	0.03
658.89	0.03
659.22	0.02
659.55	0.02
659.88	0.03
660.209	0.03
660.539	0.04
660.869	0.02
661.198	0.03
661.528	0.03
661.857	0.02
662.187	0.03
662.516	0.03
662.846	0.02
663.175	0.02
663.504	0.02
663.833	0.02
664.163	0.03
664.492	0.02
664.821	0.02
665.15	0.02
665.479	0.03
665.807	0.02
666.136	0.03
666.465	0.02
666.794	0.02
667.122	0.02
667.451	0.02
667.78	0.02
668.108	0.03
668.437	0.02
668.765	0.02
669.093	0.03
669.422	0.02
669.75	0.02
670.078	0.02
670.406	0.03
670.734	0.03
671.062	0.02
671.39	0.02
671.718	0.02
672.046	0.02
672.374	0.02
672.702	0.02
673.029	0.02
673.357	0.03
673.685	0.03
674.012	0.03
674.34	0.02
674.667	0.02
674.995	0.03
675.322	0.03
675.649	0.02
675.977	0.03
676.304	0.02
676.631	0.02
676.958	0.03
677.285	0.02
677.612	0.02
677.939	0.02
678.266	0.02
678.593	0.02
678.92	0.02
679.246	0.01
679.573	0.01
679.9	0.01
680.226	0.01
680.553	0.01
680.879	0.02
681.206	0.02
681.532	0.01
681.858	0.01
682.184	0.02
682.511	0.02
682.837	0.01
683.163	0.02
683.489	0.02
683.815	0.01
684.141	0.02
684.467	0.02
684.793	0.02
685.118	0.01
685.444	0.02
685.77	0.02
686.095	0.02
686.421	0.03
686.746	0.02
687.072	0.03
687.397	0.02
687.723	0.03
688.048	0.03
688.373	0.02
688.698	0.03
689.023	0.02
689.349	0.02
689.674	0.03
689.999	0.01
690.323	0.01
690.648	0.01
690.973	0
691.298	0.01
691.623	0.01
691.947	0.01
692.272	0.01
692.596	0.01
692.921	0.01
693.245	0.01
693.57	0.01
693.894	0.02
694.218	0.01
694.543	0.01
694.867	0.01
695.191	0.01
695.515	0.01
695.839	0.01
696.163	0.02
696.487	0.01
696.811	0.01
697.135	0.01
697.458	0.02
697.782	0.01
698.106	0.02
698.429	0.02
698.753	0.02
699.076	0.01
699.4	0.02
699.723	0.02
700.046	0.01
700.37	0.02
700.693	0.02
701.016	0.02
701.339	0.02
701.662	0.02
701.985	0.02
702.308	0.02
702.631	0.02
702.954	0.02
703.277	0.02
703.599	0.02
703.922	0.02
704.245	0.02
704.567	0.02
704.89	0.02
705.212	0.02
705.535	0.02
705.857	0.01
706.179	0.01
706.502	0.01
706.824	0.01
707.146	0.01
707.468	0.01
707.79	0.02
708.112	0.01
708.434	0.01
708.756	0.01
709.078	0.02
709.399	0.01
709.721	0.01
710.043	0.02
710.364	0.02
710.686	0.01
711.007	0.02
711.329	0.02
711.65	0.02
711.972	0.01
712.293	0.02
712.614	0.02
712.935	0.03
713.256	0.02
713.577	0.02
713.898	0.02
714.219	0.02
714.54	0.02
714.861	0.02
715.182	0.02
715.503	0.01
715.823	0.02
716.144	0.01
716.464	0.01
716.785	0.01
717.105	0.02
717.426	0.02
717.746	0.02
718.066	0.01
718.387	0.02
718.707	0.01
719.027	0.01
719.347	0
719.667	0.02
719.987	0
720.307	0.01
720.627	0.01
720.947	0.01
721.266	0.01
721.586	0
721.906	0.01
722.225	-0
722.545	0
722.864	0
723.184	0.01
723.503	0.01
723.823	0.01
724.142	0
724.461	0
724.78	0.01
725.099	0.01
725.418	0.01
725.737	0.01
726.056	0.01
726.375	0.01
726.694	0.01
727.013	0.01
727.331	0.01
