Data from 12-12-AQDScycling_Absorbance__552__00552.txt Node

Date: Tue Dec 12 13:14:44 EST 2023
User: kyuminlee
Spectrometer: FLMS00943
Trigger mode: 0
Integration Time (sec): 1.000000E-1
Scans to average: 1
Electric dark correction enabled: true
Nonlinearity correction enabled: false
Boxcar width: 0
XAxis mode: Wavelengths
Number of Pixels in Spectrum: 2048
>>>>>Begin Spectral Data<<<<<
179.651	-0
180.037	-0
180.424	-0
180.81	-0
181.197	0.1
181.583	-0.81
181.97	-0.42
182.356	-0
182.743	-0.82
183.129	0.8
183.515	0.4
183.901	-0
184.288	0.6
184.674	-0
185.06	-0.82
185.446	-0
185.832	-0.54
186.218	0.1
186.604	-0
186.99	-0
187.376	-0.06
187.762	0.02
188.148	0.3
188.534	0.06
188.92	0.06
189.305	0.06
189.691	0.19
190.077	0.13
190.463	0.07
190.848	0.09
191.234	0.02
191.619	0.09
192.005	-0.02
192.391	0.09
192.776	0.16
193.161	0.1
193.547	0.04
193.932	0.05
194.318	0.03
194.703	0.1
195.088	0.05
195.473	0.14
195.859	0.19
196.244	0.1
196.629	0.22
197.014	0.08
197.399	0.16
197.784	0.09
198.169	0.26
198.554	0.1
198.939	0.13
199.324	0.18
199.709	0.1
200.094	0.05
200.478	0.15
200.863	0.15
201.248	0.16
201.633	0.23
202.017	0.16
202.402	0.21
202.787	0.12
203.171	0.07
203.556	0.21
203.94	0.23
204.325	0.18
204.709	0.16
205.093	0.26
205.478	0.17
205.862	0.09
206.246	0.19
206.631	0.28
207.015	0.12
207.399	0.27
207.783	0.11
208.167	0.18
208.551	0.26
208.935	0.18
209.319	0.17
209.703	0.18
210.087	0.32
210.471	0.07
210.855	0.33
211.239	0.31
211.623	0.27
212.007	0.22
212.39	0.25
212.774	0.19
213.158	0.11
213.541	0.3
213.925	0.33
214.309	0.2
214.692	0.44
215.076	0.33
215.459	0.22
215.842	0.11
216.226	0.23
216.609	0.23
216.993	0.2
217.376	0.33
217.759	0.13
218.142	0.38
218.525	0.57
218.909	0.44
219.292	0.35
219.675	0.55
220.058	0.42
220.441	0.42
220.824	0.61
221.207	0.54
221.59	0.37
221.973	0.5
222.355	0.64
222.738	0.66
223.121	0.58
223.504	0.55
223.886	0.8
224.269	0.77
224.652	0.67
225.034	1.02
225.417	0.71
225.799	0.82
226.182	0.93
226.564	0.9
226.947	0.75
227.329	0.86
227.711	1.13
228.094	1.22
228.476	0.85
228.858	0.79
229.24	0.86
229.623	0.91
230.005	0.92
230.387	0.89
230.769	0.78
231.151	0.9
231.533	0.9
231.915	0.99
232.297	1.03
232.679	0.94
233.061	0.92
233.442	1.03
233.824	1.2
234.206	1
234.588	1.01
234.969	1.05
235.351	1.02
235.733	1.02
236.114	1.19
236.496	1.12
236.877	1.29
237.259	1.1
237.64	1.02
238.022	1.14
238.403	1.06
238.784	1.02
239.165	1.02
239.547	1.11
239.928	1.02
240.309	1.07
240.69	1
241.071	1.13
241.452	1.11
241.834	1.01
242.215	1.04
242.595	1.08
242.976	1.12
243.357	1.04
243.738	1.08
244.119	1.37
244.5	1.07
244.881	1.25
245.261	1.18
245.642	1.06
246.023	1.12
246.403	1.23
246.784	1.19
247.164	1.17
247.545	1.27
247.925	1.3
248.306	1.2
248.686	1.35
249.067	1.26
249.447	1.33
249.827	1.54
250.207	1.39
250.588	1.19
250.968	1.39
251.348	1.37
251.728	1.44
252.108	1.35
252.488	1.33
252.868	1.4
253.248	1.3
253.628	1.29
254.008	1.22
254.388	1.32
254.768	1.31
255.147	1.32
255.527	1.48
255.907	1.31
256.287	1.43
256.666	1.55
257.046	1.51
257.425	1.38
257.805	1.32
258.184	1.41
258.564	1.35
258.943	1.36
259.323	1.58
259.702	1.57
260.081	1.39
260.461	1.53
260.84	1.33
261.219	1.72
261.598	1.49
261.977	1.47
262.356	1.36
262.736	1.45
263.115	1.56
263.494	1.39
263.873	1.43
264.251	1.44
264.63	1.54
265.009	1.42
265.388	1.44
265.767	1.33
266.145	1.37
266.524	1.38
266.903	1.51
267.281	1.43
267.66	1.44
268.039	1.47
268.417	1.42
268.796	1.45
269.174	1.41
269.552	1.37
269.931	1.43
270.309	1.39
270.687	1.58
271.066	1.91
271.444	1.53
271.822	1.41
272.2	1.38
272.578	1.38
272.956	1.37
273.334	1.29
273.712	1.44
274.09	1.42
274.468	1.33
274.846	1.32
275.224	1.34
275.602	1.4
275.98	1.57
276.357	1.38
276.735	1.37
277.113	1.44
277.49	1.31
277.868	1.39
278.246	1.49
278.623	1.31
279.001	1.39
279.378	1.29
279.756	1.66
280.133	1.56
280.51	1.44
280.888	1.44
281.265	1.52
281.642	1.38
282.019	1.52
282.396	1.61
282.773	1.4
283.151	1.42
283.528	1.63
283.905	1.38
284.282	1.48
284.659	1.61
285.035	1.35
285.412	1.29
285.789	1.56
286.166	1.48
286.543	1.79
286.919	1.51
287.296	1.53
287.673	1.62
288.049	1.43
288.426	1.53
288.802	1.52
289.179	1.45
289.555	1.58
289.932	1.42
290.308	1.37
290.684	1.41
291.061	1.36
291.437	1.54
291.813	1.34
292.189	1.32
292.565	1.31
292.942	1.25
293.318	1.45
293.694	1.42
294.07	1.41
294.446	1.37
294.822	1.73
295.197	1.5
295.573	1.49
295.949	1.44
296.325	1.38
296.701	1.44
297.076	1.45
297.452	1.44
297.828	1.33
298.203	1.54
298.579	1.4
298.954	1.34
299.33	1.33
299.705	1.36
300.081	1.39
300.456	1.39
300.831	1.4
301.206	1.29
301.582	1.45
301.957	1.3
302.332	1.42
302.707	1.34
303.082	1.26
303.457	1.24
303.832	1.25
304.207	1.18
304.582	1.26
304.957	1.24
305.332	1.23
305.707	1.18
306.082	1.25
306.456	1.23
306.831	1.19
307.206	1.19
307.58	1.17
307.955	1.15
308.33	1.09
308.704	1.09
309.079	1.1
309.453	1.12
309.828	1.07
310.202	1.07
310.576	1.07
310.951	1.09
311.325	1.06
311.699	1.05
312.073	1.03
312.447	1.09
312.821	1
313.196	1.01
313.57	0.99
313.944	0.99
314.317	0.94
314.691	1.05
315.065	1.05
315.439	1.01
315.813	1.01
316.187	0.96
316.56	1.03
316.934	1
317.308	1
317.681	1.02
318.055	0.97
318.428	0.96
318.802	0.98
319.175	0.95
319.549	0.97
319.922	0.97
320.295	0.93
320.669	1.03
321.042	0.96
321.415	1
321.788	1
322.162	0.92
322.535	0.97
322.908	0.98
323.281	0.96
323.654	1.02
324.027	0.91
324.4	1
324.773	0.96
325.145	1
325.518	0.93
325.891	0.97
326.264	1
326.636	0.94
327.009	0.98
327.382	0.99
327.754	1.01
328.127	0.99
328.499	1.01
328.872	1
329.244	0.98
329.616	0.97
329.989	1.02
330.361	1.03
330.733	1.01
331.106	0.97
331.478	1.11
331.85	0.97
332.222	0.99
332.594	1.09
332.966	1.05
333.338	1.07
333.71	1.07
334.082	1.1
334.454	1.05
334.826	1.06
335.197	1.06
335.569	1.04
335.941	1.05
336.312	1.1
336.684	1.09
337.056	1.08
337.427	1.15
337.799	1.13
338.17	1.1
338.542	1.07
338.913	1.16
339.284	1.15
339.656	1.14
340.027	1.1
340.398	1.17
340.769	1.1
341.141	1.2
341.512	1.16
341.883	1.17
342.254	1.18
342.625	1.17
342.996	1.17
343.367	1.13
343.738	1.24
344.108	1.16
344.479	1.16
344.85	1.12
345.221	1.22
345.591	1.14
345.962	1.19
346.333	1.29
346.703	1.17
347.074	1.09
347.444	1.12
347.815	1.19
348.185	1.15
348.556	1.29
348.926	1.16
349.296	1.25
349.666	1.2
350.037	1.17
350.407	1.18
350.777	1.25
351.147	1.31
351.517	1.31
351.887	1.26
352.257	1.28
352.627	1.21
352.997	1.25
353.367	1.26
353.737	1.37
354.106	1.37
354.476	1.37
354.846	1.41
355.216	1.36
355.585	1.44
355.955	1.42
356.324	1.29
356.694	1.33
357.063	1.4
357.433	1.34
357.802	1.47
358.171	1.49
358.541	1.42
358.91	1.48
359.279	1.42
359.648	1.36
360.017	1.57
360.387	1.54
360.756	1.38
361.125	1.47
361.494	1.59
361.863	1.47
362.231	1.43
362.6	1.48
362.969	1.52
363.338	1.49
363.707	1.59
364.075	1.64
364.444	1.41
364.813	1.48
365.181	1.44
365.55	1.46
365.918	1.62
366.287	1.51
366.655	1.7
367.024	1.57
367.392	1.53
367.76	1.55
368.128	1.5
368.497	1.47
368.865	1.56
369.233	1.54
369.601	1.59
369.969	1.56
370.337	1.65
370.705	1.55
371.073	1.59
371.441	1.52
371.809	1.51
372.177	1.44
372.544	1.53
372.912	1.45
373.28	1.48
373.647	1.54
374.015	1.75
374.383	2.01
374.75	1.8
375.118	1.58
375.485	1.62
375.853	1.63
376.22	1.57
376.587	1.55
376.955	1.57
377.322	1.61
377.689	1.53
378.056	1.46
378.423	1.43
378.79	1.47
379.157	1.59
379.524	1.61
379.891	1.47
380.258	1.65
380.625	1.57
380.992	1.42
381.359	1.6
381.726	1.75
382.092	1.61
382.459	1.52
382.826	1.51
383.192	1.56
383.559	1.45
383.925	1.57
384.292	1.48
384.658	1.62
385.025	1.64
385.391	1.76
385.757	1.66
386.123	1.64
386.49	1.54
386.856	1.68
387.222	1.61
387.588	1.47
387.954	1.73
388.32	1.65
388.686	1.62
389.052	1.5
389.418	1.77
389.784	1.55
390.15	1.62
390.515	1.37
390.881	1.55
391.247	1.41
391.613	1.58
391.978	1.52
392.344	1.56
392.709	1.56
393.075	1.67
393.44	1.46
393.806	1.7
394.171	1.5
394.536	1.56
394.902	1.64
395.267	1.55
395.632	1.57
395.997	1.54
396.362	1.48
396.727	1.57
397.092	1.59
397.457	1.54
397.822	1.51
398.187	1.51
398.552	1.53
398.917	1.93
399.282	1.58
399.646	1.48
400.011	1.65
400.376	1.5
400.74	1.59
401.105	1.5
401.47	1.55
401.834	1.5
402.199	1.59
402.563	1.54
402.927	1.49
403.292	1.49
403.656	1.58
404.02	1.63
404.384	1.67
404.749	1.53
405.113	1.68
405.477	1.49
405.841	1.54
406.205	1.57
406.569	1.46
406.933	1.54
407.296	1.58
407.66	1.57
408.024	1.54
408.388	1.68
408.752	1.66
409.115	1.62
409.479	1.61
409.842	1.6
410.206	1.41
410.569	1.5
410.933	1.46
411.296	1.45
411.66	1.61
412.023	1.48
412.386	1.49
412.749	1.4
413.113	1.5
413.476	1.4
413.839	1.46
414.202	1.64
414.565	1.4
414.928	1.44
415.291	1.39
415.654	1.38
416.017	1.59
416.38	1.45
416.742	1.43
417.105	1.62
417.468	1.35
417.83	1.48
418.193	1.45
418.556	1.38
418.918	1.34
419.281	1.39
419.643	1.58
420.005	1.48
420.368	1.48
420.73	1.51
421.092	1.57
421.455	1.62
421.817	1.38
422.179	1.42
422.541	1.55
422.903	1.57
423.265	1.44
423.627	1.57
423.989	1.53
424.351	1.44
424.713	1.46
425.075	1.5
425.436	1.48
425.798	1.56
426.16	1.57
426.521	1.5
426.883	1.53
427.245	1.5
427.606	1.48
427.967	1.39
428.329	1.49
428.69	1.62
429.052	1.37
429.413	1.76
429.774	1.61
430.135	1.47
430.497	1.47
430.858	1.46
431.219	1.59
431.58	1.43
431.941	1.59
432.302	1.46
432.663	1.46
433.024	1.5
433.384	1.56
433.745	1.41
434.106	1.6
434.467	1.44
434.827	1.47
435.188	1.41
435.548	1.54
435.909	1.44
436.269	1.61
436.63	1.43
436.99	1.48
437.351	1.34
437.711	1.44
438.071	1.39
438.431	1.44
438.792	1.49
439.152	1.4
439.512	1.36
439.872	1.33
440.232	1.44
440.592	1.38
440.952	1.36
441.312	1.32
441.671	1.38
442.031	1.39
442.391	1.34
442.751	1.44
443.11	1.42
443.47	1.32
443.83	1.34
444.189	1.29
444.549	1.31
444.908	1.35
445.267	1.35
445.627	1.37
445.986	1.33
446.345	1.32
446.705	1.33
447.064	1.3
447.423	1.25
447.782	1.32
448.141	1.25
448.5	1.2
448.859	1.2
449.218	1.28
449.577	1.32
449.936	1.23
450.295	1.26
450.653	1.22
451.012	1.2
451.371	1.22
451.729	1.21
452.088	1.2
452.447	1.23
452.805	1.21
453.163	1.18
453.522	1.15
453.88	1.15
454.239	1.15
454.597	1.1
454.955	1.13
455.313	1.14
455.671	1.14
456.029	1.08
456.388	1.06
456.746	1.09
457.104	1.06
457.461	1.04
457.819	1.04
458.177	1
458.535	1
458.893	0.99
459.25	1
459.608	0.97
459.966	0.95
460.323	0.95
460.681	0.94
461.038	0.92
461.396	0.92
461.753	0.9
462.111	0.89
462.468	0.86
462.825	0.86
463.182	0.85
463.54	0.81
463.897	0.84
464.254	0.83
464.611	0.82
464.968	0.79
465.325	0.8
465.682	0.78
466.039	0.76
466.395	0.75
466.752	0.75
467.109	0.73
467.466	0.72
467.822	0.72
468.179	0.69
468.535	0.69
468.892	0.68
469.248	0.67
469.605	0.64
469.961	0.65
470.318	0.65
470.674	0.64
471.03	0.63
471.386	0.62
471.743	0.6
472.099	0.59
472.455	0.59
472.811	0.58
473.167	0.57
473.523	0.56
473.879	0.56
474.235	0.55
474.59	0.53
474.946	0.52
475.302	0.51
475.657	0.5
476.013	0.49
476.369	0.49
476.724	0.48
477.08	0.47
477.435	0.45
477.791	0.45
478.146	0.46
478.501	0.44
478.857	0.44
479.212	0.42
479.567	0.42
479.922	0.41
480.277	0.4
480.632	0.39
480.987	0.39
481.342	0.39
481.697	0.38
482.052	0.36
482.407	0.36
482.762	0.35
483.116	0.35
483.471	0.34
483.826	0.33
484.18	0.33
484.535	0.33
484.89	0.31
485.244	0.32
485.598	0.32
485.953	0.3
486.307	0.3
486.661	0.3
487.016	0.29
487.37	0.29
487.724	0.29
488.078	0.28
488.432	0.27
488.786	0.28
489.14	0.27
489.494	0.26
489.848	0.25
490.202	0.25
490.556	0.25
490.91	0.25
491.263	0.24
491.617	0.24
491.971	0.23
492.324	0.23
492.678	0.23
493.031	0.23
493.385	0.22
493.738	0.22
494.091	0.21
494.445	0.22
494.798	0.21
495.151	0.2
495.504	0.21
495.857	0.2
496.21	0.2
496.564	0.19
496.916	0.2
497.269	0.19
497.622	0.19
497.975	0.18
498.328	0.18
498.681	0.18
499.033	0.18
499.386	0.18
499.739	0.17
500.091	0.17
500.444	0.17
500.796	0.17
501.149	0.16
501.501	0.17
501.854	0.16
502.206	0.16
502.558	0.16
502.91	0.16
503.263	0.16
503.615	0.16
503.967	0.15
504.319	0.16
504.671	0.15
505.023	0.15
505.375	0.15
505.726	0.15
506.078	0.15
506.43	0.15
506.782	0.15
507.133	0.14
507.485	0.15
507.837	0.15
508.188	0.15
508.54	0.14
508.891	0.15
509.243	0.13
509.594	0.14
509.945	0.13
510.296	0.13
510.648	0.13
510.999	0.13
511.35	0.13
511.701	0.13
512.052	0.14
512.403	0.14
512.754	0.13
513.105	0.13
513.456	0.13
513.807	0.13
514.157	0.13
514.508	0.13
514.859	0.13
515.209	0.12
515.56	0.13
515.91	0.12
516.261	0.13
516.611	0.13
516.962	0.13
517.312	0.13
517.662	0.13
518.013	0.12
518.363	0.13
518.713	0.13
519.063	0.12
519.413	0.13
519.763	0.13
520.113	0.12
520.463	0.13
520.813	0.13
521.163	0.13
521.512	0.13
521.862	0.12
522.212	0.12
522.562	0.13
522.911	0.12
523.261	0.12
523.61	0.12
523.96	0.12
524.309	0.13
524.658	0.13
525.008	0.12
525.357	0.12
525.706	0.12
526.056	0.12
526.405	0.12
526.754	0.12
527.103	0.12
527.452	0.13
527.801	0.13
528.15	0.12
528.499	0.11
528.847	0.12
529.196	0.13
529.545	0.13
529.893	0.13
530.242	0.13
530.591	0.13
530.939	0.13
531.288	0.13
531.636	0.13
531.985	0.13
532.333	0.13
532.681	0.13
533.029	0.13
533.378	0.13
533.726	0.13
534.074	0.13
534.422	0.13
534.77	0.13
535.118	0.13
535.466	0.12
535.814	0.12
536.162	0.13
536.509	0.12
536.857	0.12
537.205	0.13
537.552	0.12
537.9	0.13
538.248	0.12
538.595	0.13
538.943	0.13
539.29	0.13
539.637	0.12
539.985	0.13
540.332	0.12
540.679	0.13
541.026	0.12
541.373	0.13
541.721	0.12
542.068	0.12
542.415	0.12
542.762	0.12
543.108	0.12
543.455	0.11
543.802	0.11
544.149	0.12
544.496	0.12
544.842	0.11
545.189	0.1
545.535	0.11
545.882	0.11
546.228	0.11
546.575	0.11
546.921	0.11
547.267	0.12
547.614	0.12
547.96	0.11
548.306	0.11
548.652	0.11
548.998	0.12
549.344	0.12
549.69	0.11
550.036	0.11
550.382	0.12
550.728	0.11
551.074	0.11
551.42	0.11
551.765	0.12
552.111	0.12
552.457	0.12
552.802	0.12
553.148	0.11
553.493	0.11
553.839	0.12
554.184	0.12
554.529	0.11
554.875	0.12
555.22	0.12
555.565	0.13
555.91	0.11
556.255	0.13
556.6	0.12
556.945	0.11
557.29	0.12
557.635	0.12
557.98	0.12
558.325	0.12
558.67	0.12
559.014	0.12
559.359	0.12
559.704	0.13
560.048	0.11
560.393	0.12
560.737	0.11
561.082	0.12
561.426	0.11
561.77	0.12
562.115	0.12
562.459	0.11
562.803	0.12
563.147	0.13
563.491	0.12
563.835	0.13
564.179	0.12
564.523	0.11
564.867	0.11
565.211	0.12
565.555	0.12
565.899	0.12
566.242	0.12
566.586	0.11
566.93	0.12
567.273	0.12
567.617	0.12
567.96	0.12
568.304	0.12
568.647	0.12
568.99	0.12
569.334	0.12
569.677	0.12
570.02	0.13
570.363	0.12
570.706	0.12
571.049	0.12
571.392	0.13
571.735	0.12
572.078	0.12
572.421	0.14
572.764	0.12
573.106	0.12
573.449	0.12
573.792	0.12
574.134	0.11
574.477	0.13
574.819	0.12
575.162	0.12
575.504	0.11
575.847	0.13
576.189	0.13
576.531	0.12
576.873	0.12
577.215	0.12
577.558	0.12
577.9	0.12
578.242	0.12
578.584	0.12
578.926	0.12
579.267	0.12
579.609	0.11
579.951	0.13
580.293	0.12
580.634	0.13
580.976	0.13
581.318	0.12
581.659	0.12
582.001	0.12
582.342	0.12
582.683	0.12
583.025	0.11
583.366	0.11
583.707	0.11
584.049	0.12
584.39	0.11
584.731	0.11
585.072	0.11
585.413	0.11
585.754	0.12
586.095	0.12
586.435	0.11
586.776	0.12
587.117	0.12
587.458	0.12
587.798	0.11
588.139	0.11
588.48	0.11
588.82	0.11
589.161	0.11
589.501	0.11
589.841	0.12
590.182	0.11
590.522	0.12
590.862	0.12
591.202	0.11
591.542	0.11
591.882	0.12
592.222	0.11
592.562	0.11
592.902	0.11
593.242	0.11
593.582	0.12
593.922	0.12
594.261	0.11
594.601	0.11
594.941	0.12
595.28	0.12
595.62	0.11
595.959	0.11
596.299	0.12
596.638	0.11
596.977	0.11
597.317	0.12
597.656	0.12
597.995	0.11
598.334	0.13
598.673	0.12
599.012	0.12
599.351	0.12
599.69	0.12
600.029	0.12
600.368	0.12
600.707	0.12
601.046	0.12
601.384	0.12
601.723	0.12
602.061	0.11
602.4	0.11
602.738	0.12
603.077	0.12
603.415	0.11
603.754	0.12
604.092	0.11
604.43	0.12
604.768	0.12
605.107	0.12
605.445	0.11
605.783	0.11
606.121	0.11
606.459	0.11
606.796	0.12
607.134	0.11
607.472	0.12
607.81	0.11
608.148	0.11
608.485	0.12
608.823	0.11
609.16	0.11
609.498	0.12
609.835	0.1
610.173	0.11
610.51	0.11
610.847	0.1
611.185	0.11
611.522	0.11
611.859	0.12
612.196	0.11
612.533	0.12
612.87	0.12
613.207	0.12
613.544	0.12
613.881	0.13
614.217	0.12
614.554	0.12
614.891	0.12
615.228	0.12
615.564	0.13
615.901	0.12
616.237	0.12
616.574	0.12
616.91	0.12
617.246	0.12
617.583	0.13
617.919	0.12
618.255	0.13
618.591	0.12
618.927	0.13
619.263	0.13
619.599	0.12
619.935	0.13
620.271	0.12
620.607	0.12
620.943	0.12
621.279	0.13
621.614	0.12
621.95	0.12
622.286	0.12
622.621	0.12
622.957	0.12
623.292	0.11
623.627	0.12
623.963	0.12
624.298	0.12
624.633	0.11
624.968	0.11
625.304	0.12
625.639	0.12
625.974	0.11
626.309	0.11
626.644	0.12
626.979	0.12
627.313	0.11
627.648	0.11
627.983	0.11
628.318	0.11
628.652	0.11
628.987	0.11
629.321	0.11
629.656	0.11
629.99	0.1
630.325	0.1
630.659	0.11
630.993	0.1
631.327	0.1
631.662	0.09
631.996	0.1
632.33	0.1
632.664	0.11
632.998	0.1
633.332	0.1
633.666	0.1
633.999	0.11
634.333	0.1
634.667	0.1
635.001	0.1
635.334	0.1
635.668	0.09
636.001	0.1
636.335	0.1
636.668	0.1
637.001	0.09
637.335	0.1
637.668	0.1
638.001	0.09
638.334	0.1
638.668	0.1
639.001	0.1
639.334	0.09
639.667	0.1
639.999	0.1
640.332	0.1
640.665	0.1
640.998	0.1
641.331	0.1
641.663	0.1
641.996	0.1
642.328	0.1
642.661	0.1
642.993	0.1
643.326	0.1
643.658	0.09
643.99	0.09
644.323	0.09
644.655	0.1
644.987	0.09
645.319	0.1
645.651	0.1
645.983	0.09
646.315	0.09
646.647	0.1
646.979	0.1
647.31	0.1
647.642	0.1
647.974	0.09
648.305	0.1
648.637	0.1
648.968	0.1
649.3	0.1
649.631	0.1
649.963	0.09
650.294	0.1
650.625	0.09
650.957	0.1
651.288	0.1
651.619	0.1
651.95	0.1
652.281	0.1
652.612	0.1
652.943	0.1
653.274	0.11
653.604	0.1
653.935	0.1
654.266	0.1
654.596	0.1
654.927	0.09
655.258	0.1
655.588	0.1
655.918	0.1
656.249	0.09
656.579	0.1
656.909	0.09
657.24	0.09
657.57	0.1
657.9	0.1
658.23	0.1
658.56	0.1
658.89	0.1
659.22	0.1
659.55	0.1
659.88	0.1
660.209	0.1
660.539	0.11
660.869	0.1
661.198	0.1
661.528	0.1
661.857	0.1
662.187	0.1
662.516	0.09
662.846	0.09
663.175	0.1
663.504	0.1
663.833	0.09
664.163	0.1
664.492	0.1
664.821	0.1
665.15	0.1
665.479	0.1
665.807	0.09
666.136	0.1
666.465	0.1
666.794	0.09
667.122	0.09
667.451	0.1
667.78	0.1
668.108	0.1
668.437	0.1
668.765	0.1
669.093	0.1
669.422	0.09
669.75	0.1
670.078	0.09
670.406	0.09
670.734	0.1
671.062	0.1
671.39	0.1
671.718	0.1
672.046	0.1
672.374	0.09
672.702	0.09
673.029	0.08
673.357	0.09
673.685	0.1
674.012	0.09
674.34	0.09
674.667	0.1
674.995	0.09
675.322	0.09
675.649	0.09
675.977	0.09
676.304	0.09
676.631	0.09
676.958	0.09
677.285	0.08
677.612	0.09
677.939	0.09
678.266	0.1
678.593	0.09
678.92	0.1
679.246	0.08
679.573	0.09
679.9	0.09
680.226	0.09
680.553	0.09
680.879	0.09
681.206	0.09
681.532	0.09
681.858	0.09
682.184	0.08
682.511	0.08
682.837	0.08
683.163	0.09
683.489	0.09
683.815	0.09
684.141	0.09
684.467	0.09
684.793	0.09
685.118	0.08
685.444	0.08
685.77	0.08
686.095	0.08
686.421	0.08
686.746	0.09
687.072	0.08
687.397	0.08
687.723	0.09
688.048	0.1
688.373	0.09
688.698	0.09
689.023	0.08
689.349	0.09
689.674	0.09
689.999	0.08
690.323	0.08
690.648	0.07
690.973	0.08
691.298	0.09
691.623	0.08
691.947	0.09
692.272	0.08
692.596	0.09
692.921	0.09
693.245	0.09
693.57	0.09
693.894	0.09
694.218	0.09
694.543	0.08
694.867	0.08
695.191	0.08
695.515	0.09
695.839	0.08
696.163	0.09
696.487	0.08
696.811	0.08
697.135	0.09
697.458	0.08
697.782	0.08
698.106	0.09
698.429	0.08
698.753	0.08
699.076	0.08
699.4	0.08
699.723	0.08
700.046	0.08
700.37	0.08
700.693	0.08
701.016	0.08
701.339	0.08
701.662	0.09
701.985	0.08
702.308	0.08
702.631	0.08
702.954	0.09
703.277	0.08
703.599	0.09
703.922	0.07
704.245	0.08
704.567	0.07
704.89	0.07
705.212	0.08
705.535	0.08
705.857	0.07
706.179	0.07
706.502	0.08
706.824	0.07
707.146	0.08
707.468	0.08
707.79	0.08
708.112	0.08
708.434	0.08
708.756	0.08
709.078	0.08
709.399	0.08
709.721	0.07
710.043	0.08
710.364	0.08
710.686	0.07
711.007	0.08
711.329	0.08
711.65	0.07
711.972	0.08
712.293	0.08
712.614	0.08
712.935	0.08
713.256	0.08
713.577	0.09
713.898	0.08
714.219	0.08
714.54	0.07
714.861	0.07
715.182	0.07
715.503	0.07
715.823	0.07
716.144	0.06
716.464	0.06
716.785	0.07
717.105	0.07
717.426	0.07
717.746	0.07
718.066	0.06
718.387	0.07
718.707	0.06
719.027	0.07
719.347	0.06
719.667	0.07
719.987	0.06
720.307	0.06
720.627	0.06
720.947	0.07
721.266	0.06
721.586	0.06
721.906	0.06
722.225	0.07
722.545	0.07
722.864	0.06
723.184	0.07
723.503	0.06
723.823	0.07
724.142	0.06
724.461	0.07
724.78	0.06
725.099	0.06
725.418	0.06
725.737	0.06
726.056	0.06
