Data from 12-12-AQDScycling_Absorbance__867__00867.txt Node

Date: Tue Dec 12 14:33:29 EST 2023
User: kyuminlee
Spectrometer: FLMS00943
Trigger mode: 0
Integration Time (sec): 1.000000E-1
Scans to average: 1
Electric dark correction enabled: true
Nonlinearity correction enabled: false
Boxcar width: 0
XAxis mode: Wavelengths
Number of Pixels in Spectrum: 2048
>>>>>Begin Spectral Data<<<<<
179.651	0.78
180.037	0.78
180.424	0.78
180.81	-0.02
181.197	0.09
181.583	-0.55
181.97	0.34
182.356	-0
182.743	-0
183.129	0.54
183.515	-0
183.901	-2.42
184.288	-0.04
184.674	0.01
185.06	-0.75
185.446	-0.22
185.832	-1.01
186.218	-0.04
186.604	-0
186.99	0.6
187.376	-0
187.762	0.75
188.148	0.48
188.534	0.36
188.92	-0.01
189.305	0.01
189.691	0.11
190.077	0.19
190.463	0.04
190.848	0.06
191.234	0.01
191.619	0.07
192.005	0.03
192.391	0.14
192.776	0.13
193.161	0.07
193.547	0.05
193.932	0.18
194.318	0.02
194.703	0.06
195.088	0.08
195.473	0.24
195.859	0.07
196.244	0.23
196.629	-0.03
197.014	0.09
197.399	0.17
197.784	0.16
198.169	0.08
198.554	0.22
198.939	0.16
199.324	0.21
199.709	0.15
200.094	0.12
200.478	0.16
200.863	0.17
201.248	0.12
201.633	0.1
202.017	0.07
202.402	0.2
202.787	0.27
203.171	0.06
203.556	0.15
203.94	0.13
204.325	0.14
204.709	0.2
205.093	0.14
205.478	0.25
205.862	0.12
206.246	0.11
206.631	0.11
207.015	0.06
207.399	0.16
207.783	0.17
208.167	0.18
208.551	0.2
208.935	0.24
209.319	0.18
209.703	0.19
210.087	0.18
210.471	0.05
210.855	0.11
211.239	0.24
211.623	0.39
212.007	0.16
212.39	0.18
212.774	0.18
213.158	0.21
213.541	0.15
213.925	0.1
214.309	0.21
214.692	0.25
215.076	0.3
215.459	0.13
215.842	0.18
216.226	0.19
216.609	0.29
216.993	0.22
217.376	0.33
217.759	0.27
218.142	0.34
218.525	0.44
218.909	0.3
219.292	0.27
219.675	0.44
220.058	0.35
220.441	0.5
220.824	0.47
221.207	0.56
221.59	0.46
221.973	0.42
222.355	0.63
222.738	0.62
223.121	0.61
223.504	0.6
223.886	0.7
224.269	0.68
224.652	0.55
225.034	0.68
225.417	0.81
225.799	0.73
226.182	0.82
226.564	0.86
226.947	0.74
227.329	0.84
227.711	0.87
228.094	0.98
228.476	0.95
228.858	0.83
229.24	0.78
229.623	0.88
230.005	0.83
230.387	0.84
230.769	0.83
231.151	0.97
231.533	0.84
231.915	0.97
232.297	1.15
232.679	0.96
233.061	1.05
233.442	0.97
233.824	1.03
234.206	0.98
234.588	1.01
234.969	1.12
235.351	1.03
235.733	1.15
236.114	1.33
236.496	1.04
236.877	1.14
237.259	0.94
237.64	1.01
238.022	0.98
238.403	1.03
238.784	1.04
239.165	0.94
239.547	0.99
239.928	1.01
240.309	1.02
240.69	1.06
241.071	1.14
241.452	1.1
241.834	1.11
242.215	1.03
242.595	1.06
242.976	1.11
243.357	1.15
243.738	1.04
244.119	1.25
244.5	1.1
244.881	1.15
245.261	1.31
245.642	1.13
246.023	1.23
246.403	1.22
246.784	1.24
247.164	1.17
247.545	1.27
247.925	1.16
248.306	1.28
248.686	1.59
249.067	1.29
249.447	1.39
249.827	1.33
250.207	1.32
250.588	1.26
250.968	1.36
251.348	1.28
251.728	1.54
252.108	1.25
252.488	1.35
252.868	1.36
253.248	1.35
253.628	1.35
254.008	1.35
254.388	1.43
254.768	1.28
255.147	1.36
255.527	1.4
255.907	1.28
256.287	1.28
256.666	1.4
257.046	1.63
257.425	1.42
257.805	1.27
258.184	1.28
258.564	1.39
258.943	1.35
259.323	1.51
259.702	1.45
260.081	1.51
260.461	1.48
260.84	1.35
261.219	1.76
261.598	1.47
261.977	1.41
262.356	1.47
262.736	1.42
263.115	1.52
263.494	1.34
263.873	1.5
264.251	1.52
264.63	1.42
265.009	1.34
265.388	1.42
265.767	1.44
266.145	1.52
266.524	1.42
266.903	1.44
267.281	1.45
267.66	1.48
268.039	1.45
268.417	1.39
268.796	1.44
269.174	1.45
269.552	1.29
269.931	1.41
270.309	1.36
270.687	1.59
271.066	1.63
271.444	1.5
271.822	1.51
272.2	1.39
272.578	1.33
272.956	1.57
273.334	1.34
273.712	1.35
274.09	1.48
274.468	1.35
274.846	1.25
275.224	1.27
275.602	1.55
275.98	1.55
276.357	1.55
276.735	1.34
277.113	1.34
277.49	1.26
277.868	1.25
278.246	1.39
278.623	1.23
279.001	1.33
279.378	1.34
279.756	1.3
280.133	1.47
280.51	1.44
280.888	1.57
281.265	1.27
281.642	1.38
282.019	1.47
282.396	1.58
282.773	1.38
283.151	1.51
283.528	1.42
283.905	1.44
284.282	1.63
284.659	1.59
285.035	1.43
285.412	1.34
285.789	1.61
286.166	1.41
286.543	1.49
286.919	1.47
287.296	1.39
287.673	1.74
288.049	1.5
288.426	1.45
288.802	1.44
289.179	1.5
289.555	1.45
289.932	1.51
290.308	1.26
290.684	1.3
291.061	1.35
291.437	1.67
291.813	1.39
292.189	1.42
292.565	1.3
292.942	1.27
293.318	1.39
293.694	1.48
294.07	1.31
294.446	1.44
294.822	1.46
295.197	1.35
295.573	1.41
295.949	1.45
296.325	1.41
296.701	1.47
297.076	1.45
297.452	1.5
297.828	1.45
298.203	1.4
298.579	1.36
298.954	1.37
299.33	1.31
299.705	1.39
300.081	1.3
300.456	1.36
300.831	1.23
301.206	1.27
301.582	1.32
301.957	1.34
302.332	1.31
302.707	1.21
303.082	1.21
303.457	1.26
303.832	1.22
304.207	1.14
304.582	1.13
304.957	1.17
305.332	1.19
305.707	1.13
306.082	1.15
306.456	1.12
306.831	1.06
307.206	1.07
307.58	1.06
307.955	1.05
308.33	1
308.704	1.05
309.079	0.98
309.453	1.03
309.828	1
310.202	1
310.576	0.99
310.951	0.96
311.325	0.95
311.699	0.98
312.073	0.94
312.447	0.97
312.821	0.91
313.196	0.93
313.57	0.88
313.944	0.87
314.317	0.87
314.691	0.88
315.065	0.89
315.439	0.9
315.813	0.89
316.187	0.85
316.56	0.84
316.934	0.89
317.308	0.89
317.681	0.87
318.055	0.85
318.428	0.83
318.802	0.82
319.175	0.82
319.549	0.86
319.922	0.83
320.295	0.83
320.669	0.85
321.042	0.86
321.415	0.84
321.788	0.84
322.162	0.83
322.535	0.82
322.908	0.8
323.281	0.8
323.654	0.82
324.027	0.81
324.4	0.82
324.773	0.85
325.145	0.82
325.518	0.82
325.891	0.81
326.264	0.86
326.636	0.83
327.009	0.77
327.382	0.82
327.754	0.84
328.127	0.82
328.499	0.85
328.872	0.86
329.244	0.85
329.616	0.82
329.989	0.86
330.361	0.86
330.733	0.85
331.106	0.85
331.478	0.89
331.85	0.88
332.222	0.83
332.594	0.91
332.966	0.9
333.338	0.96
333.71	0.93
334.082	0.93
334.454	0.89
334.826	0.94
335.197	0.93
335.569	0.97
335.941	0.89
336.312	0.99
336.684	0.95
337.056	0.94
337.427	0.96
337.799	0.98
338.17	0.96
338.542	1
338.913	0.98
339.284	1.03
339.656	1
340.027	1.01
340.398	1.04
340.769	1.03
341.141	1.11
341.512	1.05
341.883	1.06
342.254	1.02
342.625	1.12
342.996	1.08
343.367	1.07
343.738	1.16
344.108	1.05
344.479	1.11
344.85	1.03
345.221	1.17
345.591	1.05
345.962	1.18
346.333	1.07
346.703	1.03
347.074	1.13
347.444	1.11
347.815	1.17
348.185	1.16
348.556	1.17
348.926	1.19
349.296	1.22
349.666	1.22
350.037	1.13
350.407	1.21
350.777	1.19
351.147	1.16
351.517	1.24
351.887	1.26
352.257	1.36
352.627	1.22
352.997	1.25
353.367	1.32
353.737	1.35
354.106	1.41
354.476	1.28
354.846	1.38
355.216	1.43
355.585	1.51
355.955	1.35
356.324	1.34
356.694	1.47
357.063	1.38
357.433	1.37
357.802	1.42
358.171	1.45
358.541	1.4
358.91	1.45
359.279	1.67
359.648	1.53
360.017	1.45
360.387	1.53
360.756	1.43
361.125	1.46
361.494	1.51
361.863	1.44
362.231	1.59
362.6	1.56
362.969	1.68
363.338	1.49
363.707	1.64
364.075	1.62
364.444	1.36
364.813	1.44
365.181	1.47
365.55	1.55
365.918	1.76
366.287	1.63
366.655	1.66
367.024	1.58
367.392	1.57
367.76	1.52
368.128	1.46
368.497	1.57
368.865	1.48
369.233	1.55
369.601	1.5
369.969	1.56
370.337	1.6
370.705	1.58
371.073	1.6
371.441	1.52
371.809	1.62
372.177	1.42
372.544	1.61
372.912	1.55
373.28	1.47
373.647	1.66
374.015	1.61
374.383	1.62
374.75	1.54
375.118	1.59
375.485	1.58
375.853	1.58
376.22	1.49
376.587	1.58
376.955	1.8
377.322	1.64
377.689	1.62
378.056	1.43
378.423	1.52
378.79	1.51
379.157	1.68
379.524	1.63
379.891	1.57
380.258	1.61
380.625	1.49
380.992	1.44
381.359	1.6
381.726	1.7
382.092	1.58
382.459	1.66
382.826	1.57
383.192	1.51
383.559	1.55
383.925	1.54
384.292	1.45
384.658	1.53
385.025	1.55
385.391	1.7
385.757	1.56
386.123	1.58
386.49	1.55
386.856	1.61
387.222	1.69
387.588	1.52
387.954	1.85
388.32	1.64
388.686	1.48
389.052	1.55
389.418	1.62
389.784	1.53
390.15	1.59
390.515	1.39
390.881	1.66
391.247	1.52
391.613	1.7
391.978	1.42
392.344	1.64
392.709	1.55
393.075	1.57
393.44	1.6
393.806	1.53
394.171	1.52
394.536	1.58
394.902	1.52
395.267	1.41
395.632	1.47
395.997	1.42
396.362	1.52
396.727	1.55
397.092	1.51
397.457	1.46
397.822	1.5
398.187	1.52
398.552	1.5
398.917	1.67
399.282	1.47
399.646	1.69
400.011	1.62
400.376	1.48
400.74	1.53
401.105	1.44
401.47	1.57
401.834	1.59
402.199	1.48
402.563	1.5
402.927	1.55
403.292	1.59
403.656	1.69
404.02	1.65
404.384	1.75
404.749	1.7
405.113	1.61
405.477	1.69
405.841	1.64
406.205	1.62
406.569	1.47
406.933	1.64
407.296	1.57
407.66	1.49
408.024	1.72
408.388	1.54
408.752	1.48
409.115	1.58
409.479	1.65
409.842	1.43
410.206	1.49
410.569	1.56
410.933	1.61
411.296	1.39
411.66	1.46
412.023	1.39
412.386	1.51
412.749	1.44
413.113	1.52
413.476	1.41
413.839	1.48
414.202	1.48
414.565	1.54
414.928	1.49
415.291	1.35
415.654	1.52
416.017	1.88
416.38	1.42
416.742	1.41
417.105	1.43
417.468	1.44
417.83	1.49
418.193	1.59
418.556	1.42
418.918	1.3
419.281	1.47
419.643	1.53
420.005	1.55
420.368	1.56
420.73	1.41
421.092	1.51
421.455	1.72
421.817	1.48
422.179	1.52
422.541	1.56
422.903	1.61
423.265	1.46
423.627	1.44
423.989	1.49
424.351	1.45
424.713	1.53
425.075	1.46
425.436	1.45
425.798	1.48
426.16	1.53
426.521	1.46
426.883	1.52
427.245	1.6
427.606	1.44
427.967	1.36
428.329	1.45
428.69	1.57
429.052	1.5
429.413	1.77
429.774	1.56
430.135	1.51
430.497	1.56
430.858	1.44
431.219	1.54
431.58	1.58
431.941	1.53
432.302	1.46
432.663	1.42
433.024	1.65
433.384	1.5
433.745	1.42
434.106	1.67
434.467	1.5
434.827	1.52
435.188	1.52
435.548	1.62
435.909	1.43
436.269	1.48
436.63	1.43
436.99	1.41
437.351	1.39
437.711	1.4
438.071	1.44
438.431	1.43
438.792	1.48
439.152	1.43
439.512	1.45
439.872	1.42
440.232	1.46
440.592	1.49
440.952	1.47
441.312	1.34
441.671	1.48
442.031	1.39
442.391	1.48
442.751	1.43
443.11	1.39
443.47	1.3
443.83	1.37
444.189	1.38
444.549	1.37
444.908	1.37
445.267	1.39
445.627	1.34
445.986	1.34
446.345	1.3
446.705	1.36
447.064	1.36
447.423	1.34
447.782	1.34
448.141	1.28
448.5	1.29
448.859	1.28
449.218	1.26
449.577	1.33
449.936	1.31
450.295	1.27
450.653	1.24
451.012	1.26
451.371	1.27
451.729	1.24
452.088	1.26
452.447	1.26
452.805	1.22
453.163	1.24
453.522	1.24
453.88	1.2
454.239	1.2
454.597	1.16
454.955	1.15
455.313	1.15
455.671	1.18
456.029	1.17
456.388	1.11
456.746	1.13
457.104	1.13
457.461	1.09
457.819	1.07
458.177	1.07
458.535	1.04
458.893	1.04
459.25	1.04
459.608	1.01
459.966	1
460.323	1
460.681	0.96
461.038	0.96
461.396	0.95
461.753	0.94
462.111	0.93
462.468	0.91
462.825	0.88
463.182	0.88
463.54	0.87
463.897	0.89
464.254	0.85
464.611	0.84
464.968	0.82
465.325	0.82
465.682	0.81
466.039	0.79
466.395	0.79
466.752	0.77
467.109	0.76
467.466	0.75
467.822	0.75
468.179	0.72
468.535	0.73
468.892	0.71
469.248	0.7
469.605	0.68
469.961	0.69
470.318	0.67
470.674	0.65
471.03	0.64
471.386	0.62
471.743	0.63
472.099	0.6
472.455	0.61
472.811	0.58
473.167	0.57
473.523	0.56
473.879	0.56
474.235	0.56
474.59	0.55
474.946	0.54
475.302	0.51
475.657	0.52
476.013	0.5
476.369	0.49
476.724	0.49
477.08	0.49
477.435	0.47
477.791	0.46
478.146	0.46
478.501	0.45
478.857	0.44
479.212	0.43
479.567	0.42
479.922	0.41
480.277	0.4
480.632	0.38
480.987	0.39
481.342	0.39
481.697	0.38
482.052	0.36
482.407	0.36
482.762	0.36
483.116	0.34
483.471	0.33
483.826	0.33
484.18	0.32
484.535	0.32
484.89	0.31
485.244	0.31
485.598	0.31
485.953	0.3
486.307	0.29
486.661	0.29
487.016	0.28
487.37	0.27
487.724	0.27
488.078	0.26
488.432	0.26
488.786	0.26
489.14	0.25
489.494	0.25
489.848	0.24
490.202	0.23
490.556	0.23
490.91	0.23
491.263	0.22
491.617	0.22
491.971	0.22
492.324	0.21
492.678	0.22
493.031	0.21
493.385	0.21
493.738	0.2
494.091	0.2
494.445	0.2
494.798	0.19
495.151	0.19
495.504	0.18
495.857	0.18
496.21	0.18
496.564	0.18
496.916	0.18
497.269	0.17
497.622	0.17
497.975	0.16
498.328	0.17
498.681	0.16
499.033	0.16
499.386	0.15
499.739	0.15
500.091	0.15
500.444	0.14
500.796	0.15
501.149	0.14
501.501	0.15
501.854	0.14
502.206	0.14
502.558	0.14
502.91	0.14
503.263	0.13
503.615	0.13
503.967	0.13
504.319	0.13
504.671	0.13
505.023	0.13
505.375	0.12
505.726	0.12
506.078	0.12
506.43	0.12
506.782	0.12
507.133	0.12
507.485	0.12
507.837	0.12
508.188	0.12
508.54	0.12
508.891	0.11
509.243	0.11
509.594	0.11
509.945	0.11
510.296	0.11
510.648	0.11
510.999	0.1
511.35	0.11
511.701	0.11
512.052	0.12
512.403	0.11
512.754	0.1
513.105	0.1
513.456	0.1
513.807	0.1
514.157	0.11
514.508	0.1
514.859	0.1
515.209	0.1
515.56	0.11
515.91	0.1
516.261	0.11
516.611	0.09
516.962	0.1
517.312	0.1
517.662	0.1
518.013	0.1
518.363	0.1
518.713	0.11
519.063	0.1
519.413	0.1
519.763	0.1
520.113	0.1
520.463	0.1
520.813	0.11
521.163	0.1
521.512	0.1
521.862	0.1
522.212	0.1
522.562	0.1
522.911	0.1
523.261	0.1
523.61	0.1
523.96	0.1
524.309	0.11
524.658	0.1
525.008	0.1
525.357	0.1
525.706	0.1
526.056	0.1
526.405	0.1
526.754	0.09
527.103	0.08
527.452	0.09
527.801	0.1
528.15	0.1
528.499	0.1
528.847	0.1
529.196	0.1
529.545	0.1
529.893	0.1
530.242	0.1
530.591	0.11
530.939	0.11
531.288	0.1
531.636	0.11
531.985	0.1
532.333	0.1
532.681	0.1
533.029	0.1
533.378	0.1
533.726	0.1
534.074	0.1
534.422	0.1
534.77	0.1
535.118	0.1
535.466	0.1
535.814	0.1
536.162	0.1
536.509	0.1
536.857	0.1
537.205	0.1
537.552	0.1
537.9	0.1
538.248	0.1
538.595	0.1
538.943	0.11
539.29	0.11
539.637	0.1
539.985	0.1
540.332	0.09
540.679	0.1
541.026	0.1
541.373	0.1
541.721	0.09
542.068	0.1
542.415	0.1
542.762	0.1
543.108	0.09
543.455	0.1
543.802	0.09
544.149	0.09
544.496	0.1
544.842	0.09
545.189	0.09
545.535	0.1
545.882	0.09
546.228	0.08
546.575	0.08
546.921	0.09
547.267	0.08
547.614	0.09
547.96	0.08
548.306	0.08
548.652	0.09
548.998	0.09
549.344	0.09
549.69	0.09
550.036	0.09
550.382	0.09
550.728	0.09
551.074	0.1
551.42	0.09
551.765	0.09
552.111	0.1
552.457	0.1
552.802	0.09
553.148	0.09
553.493	0.09
553.839	0.1
554.184	0.1
554.529	0.09
554.875	0.1
555.22	0.09
555.565	0.09
555.91	0.09
556.255	0.1
556.6	0.1
556.945	0.09
557.29	0.09
557.635	0.1
557.98	0.09
558.325	0.09
558.67	0.09
559.014	0.1
559.359	0.1
559.704	0.1
560.048	0.09
560.393	0.09
560.737	0.08
561.082	0.09
561.426	0.08
561.77	0.09
562.115	0.09
562.459	0.09
562.803	0.09
563.147	0.09
563.491	0.09
563.835	0.09
564.179	0.1
564.523	0.09
564.867	0.09
565.211	0.09
565.555	0.09
565.899	0.09
566.242	0.09
566.586	0.09
566.93	0.09
567.273	0.1
567.617	0.1
567.96	0.1
568.304	0.09
568.647	0.09
568.99	0.1
569.334	0.1
569.677	0.1
570.02	0.1
570.363	0.1
570.706	0.09
571.049	0.09
571.392	0.09
571.735	0.09
572.078	0.1
572.421	0.11
572.764	0.1
573.106	0.1
573.449	0.1
573.792	0.1
574.134	0.09
574.477	0.1
574.819	0.09
575.162	0.09
575.504	0.09
575.847	0.09
576.189	0.1
576.531	0.09
576.873	0.09
577.215	0.09
577.558	0.09
577.9	0.09
578.242	0.1
578.584	0.09
578.926	0.09
579.267	0.09
579.609	0.09
579.951	0.09
580.293	0.09
580.634	0.1
580.976	0.09
581.318	0.1
581.659	0.09
582.001	0.09
582.342	0.09
582.683	0.09
583.025	0.09
583.366	0.09
583.707	0.1
584.049	0.09
584.39	0.09
584.731	0.09
585.072	0.09
585.413	0.1
585.754	0.09
586.095	0.09
586.435	0.09
586.776	0.09
587.117	0.09
587.458	0.09
587.798	0.1
588.139	0.09
588.48	0.09
588.82	0.09
589.161	0.09
589.501	0.09
589.841	0.09
590.182	0.09
590.522	0.08
590.862	0.08
591.202	0.09
591.542	0.09
591.882	0.08
592.222	0.09
592.562	0.09
592.902	0.09
593.242	0.09
593.582	0.1
593.922	0.09
594.261	0.09
594.601	0.09
594.941	0.09
595.28	0.09
595.62	0.09
595.959	0.08
596.299	0.09
596.638	0.08
596.977	0.08
597.317	0.09
597.656	0.09
597.995	0.09
598.334	0.09
598.673	0.09
599.012	0.09
599.351	0.1
599.69	0.1
600.029	0.1
600.368	0.1
600.707	0.1
601.046	0.09
601.384	0.11
601.723	0.11
602.061	0.09
602.4	0.09
602.738	0.09
603.077	0.09
603.415	0.09
603.754	0.09
604.092	0.09
604.43	0.09
604.768	0.09
605.107	0.09
605.445	0.09
605.783	0.09
606.121	0.09
606.459	0.1
606.796	0.09
607.134	0.09
607.472	0.09
607.81	0.1
608.148	0.09
608.485	0.09
608.823	0.09
609.16	0.09
609.498	0.09
609.835	0.09
610.173	0.09
610.51	0.09
610.847	0.1
611.185	0.09
611.522	0.09
611.859	0.1
612.196	0.09
612.533	0.1
612.87	0.1
613.207	0.09
613.544	0.1
613.881	0.1
614.217	0.1
614.554	0.09
614.891	0.1
615.228	0.1
615.564	0.1
615.901	0.11
616.237	0.11
616.574	0.1
616.91	0.1
617.246	0.1
617.583	0.1
617.919	0.1
618.255	0.1
618.591	0.1
618.927	0.1
619.263	0.1
619.599	0.1
619.935	0.1
620.271	0.1
620.607	0.1
620.943	0.1
621.279	0.1
621.614	0.1
621.95	0.09
622.286	0.1
622.621	0.1
622.957	0.09
623.292	0.1
623.627	0.09
623.963	0.09
624.298	0.09
624.633	0.09
624.968	0.08
625.304	0.09
625.639	0.09
625.974	0.09
626.309	0.09
626.644	0.1
626.979	0.09
627.313	0.1
627.648	0.09
627.983	0.1
628.318	0.09
628.652	0.09
628.987	0.09
629.321	0.09
629.656	0.09
629.99	0.08
630.325	0.09
630.659	0.08
630.993	0.08
631.327	0.09
631.662	0.07
631.996	0.08
632.33	0.08
632.664	0.08
632.998	0.08
633.332	0.07
633.666	0.08
633.999	0.08
634.333	0.08
634.667	0.08
635.001	0.07
635.334	0.07
635.668	0.08
636.001	0.07
636.335	0.08
636.668	0.08
637.001	0.07
637.335	0.08
637.668	0.08
638.001	0.07
638.334	0.08
638.668	0.07
639.001	0.07
639.334	0.07
639.667	0.07
639.999	0.07
640.332	0.08
640.665	0.07
640.998	0.08
641.331	0.08
641.663	0.08
641.996	0.08
642.328	0.08
642.661	0.09
642.993	0.08
643.326	0.08
643.658	0.08
643.99	0.08
644.323	0.08
644.655	0.08
644.987	0.09
645.319	0.09
645.651	0.08
645.983	0.09
646.315	0.08
646.647	0.09
646.979	0.09
647.31	0.09
647.642	0.09
647.974	0.09
648.305	0.09
648.637	0.08
648.968	0.08
649.3	0.09
649.631	0.09
649.963	0.08
650.294	0.08
650.625	0.08
650.957	0.08
651.288	0.09
651.619	0.09
651.95	0.08
652.281	0.08
652.612	0.09
652.943	0.09
653.274	0.09
653.604	0.09
653.935	0.09
654.266	0.09
654.596	0.08
654.927	0.08
655.258	0.09
655.588	0.09
655.918	0.08
656.249	0.06
656.579	0.08
656.909	0.08
657.24	0.08
657.57	0.09
657.9	0.08
658.23	0.08
658.56	0.08
658.89	0.08
659.22	0.08
659.55	0.08
659.88	0.08
660.209	0.08
660.539	0.09
660.869	0.08
661.198	0.08
661.528	0.08
661.857	0.08
662.187	0.08
662.516	0.08
662.846	0.08
663.175	0.07
663.504	0.08
663.833	0.08
664.163	0.08
664.492	0.08
664.821	0.08
665.15	0.08
665.479	0.08
665.807	0.07
666.136	0.08
666.465	0.08
666.794	0.08
667.122	0.07
667.451	0.08
667.78	0.09
668.108	0.08
668.437	0.08
668.765	0.09
669.093	0.09
669.422	0.09
669.75	0.09
670.078	0.09
670.406	0.09
670.734	0.08
671.062	0.08
671.39	0.09
671.718	0.08
672.046	0.08
672.374	0.09
672.702	0.08
673.029	0.08
673.357	0.09
673.685	0.09
674.012	0.09
674.34	0.09
674.667	0.08
674.995	0.08
675.322	0.08
675.649	0.08
675.977	0.07
676.304	0.08
676.631	0.08
676.958	0.08
677.285	0.07
677.612	0.07
677.939	0.08
678.266	0.08
678.593	0.08
678.92	0.08
679.246	0.08
679.573	0.08
679.9	0.08
680.226	0.08
680.553	0.07
680.879	0.08
681.206	0.08
681.532	0.08
681.858	0.07
682.184	0.07
682.511	0.08
682.837	0.08
683.163	0.09
683.489	0.09
683.815	0.08
684.141	0.08
684.467	0.08
684.793	0.08
685.118	0.08
685.444	0.08
685.77	0.08
686.095	0.08
686.421	0.08
686.746	0.08
687.072	0.08
687.397	0.07
687.723	0.08
688.048	0.08
688.373	0.08
688.698	0.08
689.023	0.07
689.349	0.07
689.674	0.07
689.999	0.07
690.323	0.06
690.648	0.06
690.973	0.06
691.298	0.07
691.623	0.07
691.947	0.07
692.272	0.06
692.596	0.07
692.921	0.07
693.245	0.07
693.57	0.08
693.894	0.08
694.218	0.08
694.543	0.07
694.867	0.07
695.191	0.08
695.515	0.07
695.839	0.07
696.163	0.07
696.487	0.07
696.811	0.07
697.135	0.07
697.458	0.07
697.782	0.07
698.106	0.07
698.429	0.07
698.753	0.07
699.076	0.07
699.4	0.07
699.723	0.07
700.046	0.06
700.37	0.08
700.693	0.08
701.016	0.07
701.339	0.07
701.662	0.08
701.985	0.07
702.308	0.07
702.631	0.08
702.954	0.07
703.277	0.07
703.599	0.07
703.922	0.06
704.245	0.06
704.567	0.06
704.89	0.07
705.212	0.06
705.535	0.06
705.857	0.06
706.179	0.05
706.502	0.06
706.824	0.06
707.146	0.06
707.468	0.07
707.79	0.06
708.112	0.07
708.434	0.07
708.756	0.07
709.078	0.06
709.399	0.06
709.721	0.06
710.043	0.07
710.364	0.06
710.686	0.07
711.007	0.07
711.329	0.07
711.65	0.07
711.972	0.07
712.293	0.07
712.614	0.07
712.935	0.07
713.256	0.07
713.577	0.07
713.898	0.07
714.219	0.07
714.54	0.07
714.861	0.06
715.182	0.07
715.503	0.06
715.823	0.07
716.144	0.07
716.464	0.06
716.785	0.07
717.105	0.06
717.426	0.07
717.746	0.06
718.066	0.05
718.387	0.06
718.707	0.05
719.027	0.06
719.347	0.05
719.667	0.06
719.987	0.05
720.307	0.05
720.627	0.06
720.947	0.06
721.266	0.05
721.586	0.05
721.906	0.05
722.225	0.05
722.545	0.05
722.864	0.05
723.184	0.06
723.503	0.06
723.823	0.06
724.142	0.05
724.461	0.05
724.78	0.05
725.099	0.06
725.418	0.06
725.737	0.06
726.056	0.06
