Data from 12-12-AQDScycling_Absorbance__200__00200.txt Node

Date: Tue Dec 12 11:48:32 EST 2023
User: kyuminlee
Spectrometer: FLMS00943
Trigger mode: 0
Integration Time (sec): 1.000000E-1
Scans to average: 1
Electric dark correction enabled: true
Nonlinearity correction enabled: false
Boxcar width: 0
XAxis mode: Wavelengths
Number of Pixels in Spectrum: 2048
>>>>>Begin Spectral Data<<<<<
179.651	-0.23
180.037	-0.23
180.424	-0.23
180.81	-0.14
181.197	0.28
181.583	-0
181.97	-0.22
182.356	-0.23
182.743	-1.04
183.129	-0
183.515	0.35
183.901	-2.52
184.288	0.02
184.674	-0
185.06	-0.76
185.446	-0.17
185.832	-1.11
186.218	0.16
186.604	-0.31
186.99	-0
187.376	1.02
187.762	-0
188.148	0.52
188.534	-0.14
188.92	0.09
189.305	0.07
189.691	0.13
190.077	0.15
190.463	0.29
190.848	0.05
191.234	0.13
191.619	0.01
192.005	0.12
192.391	0.12
192.776	0.16
193.161	0.08
193.547	0.17
193.932	0.09
194.318	0.14
194.703	0.07
195.088	0.26
195.473	0.23
195.859	0.15
196.244	0.09
196.629	0.21
197.014	0.08
197.399	0.12
197.784	0.23
198.169	0.17
198.554	0.21
198.939	0.16
199.324	0.09
199.709	-0.03
200.094	0.05
200.478	0.33
200.863	0.2
201.248	0.13
201.633	0.2
202.017	0.07
202.402	0.48
202.787	0.01
203.171	0.17
203.556	0.25
203.94	0.12
204.325	0.32
204.709	0.17
205.093	0.14
205.478	0.28
205.862	0.05
206.246	0.39
206.631	0.11
207.015	0.13
207.399	0.27
207.783	0.21
208.167	0.16
208.551	0.26
208.935	0.17
209.319	0.13
209.703	0.3
210.087	0.23
210.471	0.06
210.855	0.14
211.239	0.17
211.623	0.23
212.007	0.19
212.39	0.21
212.774	0.04
213.158	0.14
213.541	0.27
213.925	0.23
214.309	0.3
214.692	0.31
215.076	0.33
215.459	0.19
215.842	0.16
216.226	0.26
216.609	0.38
216.993	0.19
217.376	0.4
217.759	0.29
218.142	0.3
218.525	0.45
218.909	0.4
219.292	0.29
219.675	0.32
220.058	0.41
220.441	0.45
220.824	0.38
221.207	0.65
221.59	0.59
221.973	0.6
222.355	0.66
222.738	0.68
223.121	0.54
223.504	0.59
223.886	0.77
224.269	0.69
224.652	0.62
225.034	0.78
225.417	0.69
225.799	0.87
226.182	0.76
226.564	0.85
226.947	0.77
227.329	0.79
227.711	1.07
228.094	1
228.476	0.97
228.858	0.91
229.24	0.91
229.623	0.86
230.005	0.95
230.387	0.85
230.769	0.87
231.151	0.98
231.533	0.94
231.915	0.93
232.297	1.13
232.679	0.99
233.061	1.08
233.442	1
233.824	1.17
234.206	1.07
234.588	1.07
234.969	1.03
235.351	1.04
235.733	0.95
236.114	1.28
236.496	1.04
236.877	0.97
237.259	1.07
237.64	1
238.022	1.02
238.403	1.01
238.784	0.99
239.165	0.99
239.547	1.23
239.928	1.03
240.309	1.09
240.69	1.17
241.071	1.14
241.452	1.27
241.834	1.1
242.215	1.04
242.595	1.17
242.976	1.08
243.357	1.3
243.738	1.09
244.119	1.24
244.5	1.08
244.881	1.27
245.261	1.15
245.642	1.26
246.023	1.16
246.403	1.21
246.784	1.24
247.164	1.22
247.545	1.29
247.925	1.31
248.306	1.26
248.686	1.31
249.067	1.28
249.447	1.37
249.827	1.5
250.207	1.33
250.588	1.21
250.968	1.38
251.348	1.38
251.728	1.34
252.108	1.35
252.488	1.44
252.868	1.49
253.248	1.33
253.628	1.4
254.008	1.49
254.388	1.31
254.768	1.35
255.147	1.4
255.527	1.44
255.907	1.24
256.287	1.38
256.666	1.36
257.046	1.55
257.425	1.54
257.805	1.46
258.184	1.33
258.564	1.32
258.943	1.36
259.323	1.49
259.702	1.44
260.081	1.35
260.461	1.61
260.84	1.52
261.219	1.66
261.598	1.58
261.977	1.41
262.356	1.47
262.736	1.48
263.115	1.64
263.494	1.53
263.873	1.53
264.251	1.62
264.63	1.54
265.009	1.47
265.388	1.48
265.767	1.37
266.145	1.39
266.524	1.49
266.903	1.43
267.281	1.42
267.66	1.38
268.039	1.37
268.417	1.48
268.796	1.44
269.174	1.51
269.552	1.21
269.931	1.33
270.309	1.35
270.687	1.59
271.066	1.57
271.444	1.38
271.822	1.56
272.2	1.39
272.578	1.41
272.956	1.47
273.334	1.55
273.712	1.63
274.09	1.48
274.468	1.43
274.846	1.24
275.224	1.38
275.602	1.41
275.98	1.58
276.357	1.39
276.735	1.5
277.113	1.42
277.49	1.33
277.868	1.28
278.246	1.47
278.623	1.29
279.001	1.39
279.378	1.3
279.756	1.48
280.133	1.61
280.51	1.33
280.888	1.54
281.265	1.36
281.642	1.4
282.019	1.51
282.396	1.7
282.773	1.52
283.151	1.58
283.528	1.44
283.905	1.32
284.282	1.52
284.659	1.53
285.035	1.37
285.412	1.34
285.789	1.62
286.166	1.54
286.543	1.53
286.919	1.47
287.296	1.37
287.673	1.66
288.049	1.56
288.426	1.67
288.802	1.49
289.179	1.54
289.555	1.65
289.932	1.46
290.308	1.29
290.684	1.5
291.061	1.37
291.437	1.62
291.813	1.38
292.189	1.39
292.565	1.36
292.942	1.34
293.318	1.44
293.694	1.51
294.07	1.51
294.446	1.47
294.822	1.55
295.197	1.62
295.573	1.48
295.949	1.49
296.325	1.52
296.701	1.52
297.076	1.6
297.452	1.74
297.828	1.46
298.203	1.65
298.579	1.46
298.954	1.43
299.33	1.4
299.705	1.55
300.081	1.7
300.456	1.5
300.831	1.43
301.206	1.47
301.582	1.66
301.957	1.54
302.332	1.5
302.707	1.51
303.082	1.48
303.457	1.41
303.832	1.44
304.207	1.39
304.582	1.4
304.957	1.59
305.332	1.58
305.707	1.51
306.082	1.53
306.456	1.53
306.831	1.47
307.206	1.59
307.58	1.62
307.955	1.4
308.33	1.5
308.704	1.5
309.079	1.44
309.453	1.58
309.828	1.64
310.202	1.55
310.576	1.54
310.951	1.51
311.325	1.59
311.699	1.45
312.073	1.51
312.447	1.53
312.821	1.48
313.196	1.52
313.57	1.36
313.944	1.49
314.317	1.48
314.691	1.72
315.065	1.49
315.439	1.64
315.813	1.61
316.187	1.43
316.56	1.64
316.934	1.48
317.308	1.57
317.681	1.52
318.055	1.55
318.428	1.44
318.802	1.62
319.175	1.39
319.549	1.44
319.922	1.4
320.295	1.49
320.669	1.84
321.042	1.5
321.415	1.88
321.788	1.54
322.162	1.44
322.535	1.78
322.908	1.48
323.281	1.54
323.654	1.69
324.027	1.52
324.4	1.53
324.773	1.63
325.145	1.56
325.518	1.59
325.891	1.4
326.264	1.62
326.636	1.46
327.009	1.43
327.382	1.52
327.754	1.6
328.127	1.52
328.499	1.58
328.872	1.45
329.244	1.53
329.616	1.42
329.989	1.69
330.361	1.54
330.733	1.57
331.106	1.49
331.478	1.68
331.85	1.46
332.222	1.35
332.594	1.49
332.966	1.5
333.338	1.72
333.71	1.58
334.082	1.86
334.454	1.49
334.826	1.5
335.197	1.57
335.569	1.66
335.941	1.42
336.312	1.47
336.684	1.57
337.056	1.41
337.427	1.62
337.799	1.52
338.17	1.56
338.542	1.43
338.913	1.64
339.284	1.55
339.656	1.49
340.027	1.58
340.398	1.71
340.769	1.61
341.141	1.84
341.512	1.53
341.883	1.85
342.254	1.51
342.625	1.7
342.996	1.54
343.367	1.53
343.738	1.57
344.108	1.45
344.479	1.55
344.85	1.56
345.221	1.52
345.591	1.49
345.962	1.63
346.333	1.48
346.703	1.33
347.074	1.5
347.444	1.33
347.815	1.4
348.185	1.65
348.556	1.39
348.926	1.28
349.296	1.38
349.666	1.39
350.037	1.4
350.407	1.21
350.777	1.36
351.147	1.51
351.517	1.3
351.887	1.39
352.257	1.49
352.627	1.32
352.997	1.32
353.367	1.41
353.737	1.39
354.106	1.37
354.476	1.28
354.846	1.34
355.216	1.37
355.585	1.45
355.955	1.35
356.324	1.43
356.694	1.35
357.063	1.26
357.433	1.28
357.802	1.28
358.171	1.31
358.541	1.27
358.91	1.29
359.279	1.24
359.648	1.25
360.017	1.26
360.387	1.25
360.756	1.19
361.125	1.18
361.494	1.22
361.863	1.17
362.231	1.13
362.6	1.18
362.969	1.2
363.338	1.17
363.707	1.15
364.075	1.19
364.444	1.06
364.813	1.09
365.181	1.01
365.55	1.03
365.918	1.09
366.287	1.12
366.655	1.07
367.024	1.11
367.392	1.1
367.76	0.99
368.128	1
368.497	1.02
368.865	1.02
369.233	0.99
369.601	1.03
369.969	0.99
370.337	1
370.705	0.97
371.073	0.96
371.441	0.99
371.809	1
372.177	0.98
372.544	0.96
372.912	0.96
373.28	0.96
373.647	0.99
374.015	1.02
374.383	1.04
374.75	1.03
375.118	0.97
375.485	0.98
375.853	1.03
376.22	0.95
376.587	0.94
376.955	0.95
377.322	0.97
377.689	0.93
378.056	0.94
378.423	0.96
378.79	0.98
379.157	0.95
379.524	0.98
379.891	0.99
380.258	1.01
380.625	0.96
380.992	0.94
381.359	0.97
381.726	1.03
382.092	1
382.459	0.99
382.826	0.99
383.192	1
383.559	0.98
383.925	1.02
384.292	1.01
384.658	1.06
385.025	1.03
385.391	1.06
385.757	1.01
386.123	1.04
386.49	1.03
386.856	1.07
387.222	1.09
387.588	1.07
387.954	1.13
388.32	1.09
388.686	1.16
389.052	1.1
389.418	1.13
389.784	1.05
390.15	1.12
390.515	1.06
390.881	1.14
391.247	1.08
391.613	1.14
391.978	1.07
392.344	1.17
392.709	1.13
393.075	1.1
393.44	1.09
393.806	1.11
394.171	1.05
394.536	1.07
394.902	1.09
395.267	1.01
395.632	1.06
395.997	1.12
396.362	1.06
396.727	1.08
397.092	1.1
397.457	1.11
397.822	1.04
398.187	1.05
398.552	1.03
398.917	1.1
399.282	0.99
399.646	1
400.011	1.05
400.376	1
400.74	0.97
401.105	0.98
401.47	1.03
401.834	0.97
402.199	1
402.563	0.95
402.927	0.93
403.292	0.96
403.656	0.96
404.02	0.98
404.384	0.94
404.749	0.93
405.113	0.91
405.477	0.92
405.841	0.9
406.205	0.89
406.569	0.89
406.933	0.89
407.296	0.9
407.66	0.88
408.024	0.88
408.388	0.9
408.752	0.88
409.115	0.88
409.479	0.83
409.842	0.84
410.206	0.84
410.569	0.86
410.933	0.82
411.296	0.78
411.66	0.82
412.023	0.78
412.386	0.8
412.749	0.79
413.113	0.81
413.476	0.76
413.839	0.79
414.202	0.78
414.565	0.75
414.928	0.75
415.291	0.77
415.654	0.77
416.017	0.76
416.38	0.74
416.742	0.74
417.105	0.72
417.468	0.71
417.83	0.74
418.193	0.76
418.556	0.72
418.918	0.74
419.281	0.71
419.643	0.75
420.005	0.74
420.368	0.73
420.73	0.72
421.092	0.77
421.455	0.72
421.817	0.69
422.179	0.71
422.541	0.7
422.903	0.71
423.265	0.71
423.627	0.72
423.989	0.66
424.351	0.67
424.713	0.69
425.075	0.7
425.436	0.67
425.798	0.69
426.16	0.7
426.521	0.7
426.883	0.68
427.245	0.66
427.606	0.66
427.967	0.65
428.329	0.66
428.69	0.68
429.052	0.67
429.413	0.67
429.774	0.65
430.135	0.65
430.497	0.66
430.858	0.66
431.219	0.65
431.58	0.64
431.941	0.65
432.302	0.63
432.663	0.63
433.024	0.65
433.384	0.64
433.745	0.64
434.106	0.65
434.467	0.65
434.827	0.62
435.188	0.62
435.548	0.64
435.909	0.64
436.269	0.63
436.63	0.61
436.99	0.61
437.351	0.59
437.711	0.62
438.071	0.6
438.431	0.6
438.792	0.6
439.152	0.6
439.512	0.6
439.872	0.59
440.232	0.62
440.592	0.62
440.952	0.6
441.312	0.58
441.671	0.57
442.031	0.58
442.391	0.57
442.751	0.6
443.11	0.58
443.47	0.55
443.83	0.55
444.189	0.56
444.549	0.58
444.908	0.54
445.267	0.54
445.627	0.55
445.986	0.53
446.345	0.52
446.705	0.54
447.064	0.52
447.423	0.52
447.782	0.53
448.141	0.52
448.5	0.51
448.859	0.52
449.218	0.51
449.577	0.52
449.936	0.53
450.295	0.51
450.653	0.51
451.012	0.5
451.371	0.51
451.729	0.5
452.088	0.52
452.447	0.51
452.805	0.51
453.163	0.5
453.522	0.5
453.88	0.48
454.239	0.48
454.597	0.48
454.955	0.48
455.313	0.46
455.671	0.47
456.029	0.46
456.388	0.46
456.746	0.45
457.104	0.44
457.461	0.44
457.819	0.44
458.177	0.42
458.535	0.42
458.893	0.43
459.25	0.42
459.608	0.41
459.966	0.41
460.323	0.4
460.681	0.39
461.038	0.4
461.396	0.4
461.753	0.39
462.111	0.38
462.468	0.38
462.825	0.37
463.182	0.37
463.54	0.37
463.897	0.37
464.254	0.37
464.611	0.36
464.968	0.36
465.325	0.36
465.682	0.35
466.039	0.34
466.395	0.35
466.752	0.33
467.109	0.33
467.466	0.34
467.822	0.34
468.179	0.32
468.535	0.33
468.892	0.32
469.248	0.31
469.605	0.3
469.961	0.32
470.318	0.33
470.674	0.31
471.03	0.3
471.386	0.3
471.743	0.3
472.099	0.3
472.455	0.29
472.811	0.29
473.167	0.28
473.523	0.27
473.879	0.28
474.235	0.27
474.59	0.26
474.946	0.26
475.302	0.26
475.657	0.26
476.013	0.25
476.369	0.25
476.724	0.26
477.08	0.25
477.435	0.24
477.791	0.24
478.146	0.25
478.501	0.24
478.857	0.24
479.212	0.23
479.567	0.23
479.922	0.23
480.277	0.23
480.632	0.22
480.987	0.22
481.342	0.22
481.697	0.22
482.052	0.21
482.407	0.21
482.762	0.2
483.116	0.2
483.471	0.2
483.826	0.19
484.18	0.19
484.535	0.19
484.89	0.19
485.244	0.19
485.598	0.19
485.953	0.19
486.307	0.18
486.661	0.19
487.016	0.18
487.37	0.18
487.724	0.17
488.078	0.18
488.432	0.18
488.786	0.18
489.14	0.17
489.494	0.16
489.848	0.17
490.202	0.17
490.556	0.17
490.91	0.16
491.263	0.16
491.617	0.17
491.971	0.16
492.324	0.16
492.678	0.16
493.031	0.17
493.385	0.16
493.738	0.16
494.091	0.15
494.445	0.15
494.798	0.15
495.151	0.15
495.504	0.15
495.857	0.15
496.21	0.15
496.564	0.15
496.916	0.16
497.269	0.14
497.622	0.15
497.975	0.15
498.328	0.15
498.681	0.14
499.033	0.14
499.386	0.14
499.739	0.14
500.091	0.14
500.444	0.14
500.796	0.14
501.149	0.14
501.501	0.14
501.854	0.14
502.206	0.14
502.558	0.14
502.91	0.14
503.263	0.14
503.615	0.14
503.967	0.14
504.319	0.14
504.671	0.14
505.023	0.13
505.375	0.13
505.726	0.13
506.078	0.13
506.43	0.12
506.782	0.13
507.133	0.13
507.485	0.13
507.837	0.13
508.188	0.13
508.54	0.13
508.891	0.13
509.243	0.13
509.594	0.13
509.945	0.13
510.296	0.12
510.648	0.13
510.999	0.12
511.35	0.12
511.701	0.12
512.052	0.13
512.403	0.13
512.754	0.13
513.105	0.12
513.456	0.12
513.807	0.12
514.157	0.13
514.508	0.12
514.859	0.12
515.209	0.12
515.56	0.12
515.91	0.12
516.261	0.12
516.611	0.12
516.962	0.12
517.312	0.11
517.662	0.12
518.013	0.12
518.363	0.12
518.713	0.12
519.063	0.12
519.413	0.12
519.763	0.12
520.113	0.12
520.463	0.12
520.813	0.12
521.163	0.12
521.512	0.12
521.862	0.12
522.212	0.12
522.562	0.12
522.911	0.12
523.261	0.12
523.61	0.12
523.96	0.12
524.309	0.12
524.658	0.13
525.008	0.12
525.357	0.12
525.706	0.12
526.056	0.13
526.405	0.12
526.754	0.12
527.103	0.12
527.452	0.12
527.801	0.13
528.15	0.13
528.499	0.12
528.847	0.12
529.196	0.13
529.545	0.13
529.893	0.13
530.242	0.12
530.591	0.13
530.939	0.13
531.288	0.13
531.636	0.13
531.985	0.13
532.333	0.13
532.681	0.13
533.029	0.13
533.378	0.13
533.726	0.13
534.074	0.14
534.422	0.12
534.77	0.13
535.118	0.13
535.466	0.13
535.814	0.13
536.162	0.12
536.509	0.13
536.857	0.13
537.205	0.13
537.552	0.13
537.9	0.13
538.248	0.12
538.595	0.13
538.943	0.13
539.29	0.13
539.637	0.12
539.985	0.13
540.332	0.13
540.679	0.12
541.026	0.12
541.373	0.13
541.721	0.11
542.068	0.12
542.415	0.13
542.762	0.12
543.108	0.11
543.455	0.11
543.802	0.11
544.149	0.12
544.496	0.12
544.842	0.11
545.189	0.11
545.535	0.11
545.882	0.12
546.228	0.11
546.575	0.11
546.921	0.11
547.267	0.11
547.614	0.12
547.96	0.12
548.306	0.12
548.652	0.11
548.998	0.13
549.344	0.11
549.69	0.12
550.036	0.12
550.382	0.12
550.728	0.12
551.074	0.13
551.42	0.13
551.765	0.13
552.111	0.13
552.457	0.13
552.802	0.13
553.148	0.13
553.493	0.13
553.839	0.13
554.184	0.12
554.529	0.12
554.875	0.13
555.22	0.13
555.565	0.13
555.91	0.13
556.255	0.13
556.6	0.12
556.945	0.12
557.29	0.12
557.635	0.13
557.98	0.13
558.325	0.13
558.67	0.12
559.014	0.12
559.359	0.13
559.704	0.13
560.048	0.12
560.393	0.12
560.737	0.12
561.082	0.13
561.426	0.11
561.77	0.12
562.115	0.12
562.459	0.12
562.803	0.11
563.147	0.12
563.491	0.12
563.835	0.12
564.179	0.12
564.523	0.12
564.867	0.12
565.211	0.12
565.555	0.12
565.899	0.13
566.242	0.12
566.586	0.12
566.93	0.13
567.273	0.12
567.617	0.13
567.96	0.13
568.304	0.13
568.647	0.13
568.99	0.13
569.334	0.14
569.677	0.13
570.02	0.13
570.363	0.13
570.706	0.12
571.049	0.12
571.392	0.13
571.735	0.11
572.078	0.12
572.421	0.13
572.764	0.13
573.106	0.13
573.449	0.12
573.792	0.12
574.134	0.12
574.477	0.13
574.819	0.13
575.162	0.13
575.504	0.12
575.847	0.13
576.189	0.13
576.531	0.13
576.873	0.13
577.215	0.13
577.558	0.13
577.9	0.12
578.242	0.13
578.584	0.13
578.926	0.12
579.267	0.12
579.609	0.12
579.951	0.13
580.293	0.12
580.634	0.12
580.976	0.13
581.318	0.12
581.659	0.12
582.001	0.12
582.342	0.11
582.683	0.13
583.025	0.12
583.366	0.12
583.707	0.12
584.049	0.12
584.39	0.13
584.731	0.11
585.072	0.12
585.413	0.12
585.754	0.12
586.095	0.12
586.435	0.12
586.776	0.13
587.117	0.13
587.458	0.13
587.798	0.13
588.139	0.13
588.48	0.12
588.82	0.11
589.161	0.12
589.501	0.12
589.841	0.13
590.182	0.12
590.522	0.12
590.862	0.12
591.202	0.12
591.542	0.13
591.882	0.12
592.222	0.12
592.562	0.12
592.902	0.12
593.242	0.12
593.582	0.13
593.922	0.12
594.261	0.12
594.601	0.12
594.941	0.12
595.28	0.12
595.62	0.13
595.959	0.12
596.299	0.12
596.638	0.12
596.977	0.12
597.317	0.13
597.656	0.12
597.995	0.12
598.334	0.13
598.673	0.12
599.012	0.11
599.351	0.13
599.69	0.12
600.029	0.12
600.368	0.12
600.707	0.12
601.046	0.12
601.384	0.12
601.723	0.12
602.061	0.12
602.4	0.12
602.738	0.12
603.077	0.12
603.415	0.12
603.754	0.13
604.092	0.12
604.43	0.11
604.768	0.13
605.107	0.13
605.445	0.12
605.783	0.11
606.121	0.12
606.459	0.12
606.796	0.12
607.134	0.11
607.472	0.12
607.81	0.11
608.148	0.11
608.485	0.12
608.823	0.12
609.16	0.12
609.498	0.12
609.835	0.12
610.173	0.11
610.51	0.13
610.847	0.13
611.185	0.12
611.522	0.12
611.859	0.13
612.196	0.12
612.533	0.14
612.87	0.14
613.207	0.13
613.544	0.13
613.881	0.13
614.217	0.12
614.554	0.13
614.891	0.12
615.228	0.13
615.564	0.13
615.901	0.13
616.237	0.13
616.574	0.13
616.91	0.13
617.246	0.13
617.583	0.13
617.919	0.14
618.255	0.14
618.591	0.13
618.927	0.14
619.263	0.14
619.599	0.13
619.935	0.14
620.271	0.13
620.607	0.13
620.943	0.13
621.279	0.13
621.614	0.13
621.95	0.13
622.286	0.12
622.621	0.12
622.957	0.12
623.292	0.12
623.627	0.12
623.963	0.12
624.298	0.12
624.633	0.12
624.968	0.12
625.304	0.12
625.639	0.12
625.974	0.12
626.309	0.11
626.644	0.12
626.979	0.12
627.313	0.12
627.648	0.12
627.983	0.12
628.318	0.11
628.652	0.11
628.987	0.11
629.321	0.12
629.656	0.11
629.99	0.11
630.325	0.12
630.659	0.12
630.993	0.11
631.327	0.11
631.662	0.11
631.996	0.11
632.33	0.11
632.664	0.11
632.998	0.11
633.332	0.11
633.666	0.11
633.999	0.11
634.333	0.11
634.667	0.11
635.001	0.11
635.334	0.1
635.668	0.1
636.001	0.1
636.335	0.11
636.668	0.1
637.001	0.1
637.335	0.1
637.668	0.11
638.001	0.11
638.334	0.11
638.668	0.1
639.001	0.11
639.334	0.1
639.667	0.1
639.999	0.1
640.332	0.11
640.665	0.1
640.998	0.1
641.331	0.1
641.663	0.1
641.996	0.1
642.328	0.1
642.661	0.1
642.993	0.11
643.326	0.1
643.658	0.1
643.99	0.09
644.323	0.1
644.655	0.1
644.987	0.1
645.319	0.1
645.651	0.1
645.983	0.1
646.315	0.1
646.647	0.11
646.979	0.12
647.31	0.11
647.642	0.11
647.974	0.11
648.305	0.11
648.637	0.1
648.968	0.11
649.3	0.11
649.631	0.11
649.963	0.11
650.294	0.12
650.625	0.11
650.957	0.12
651.288	0.12
651.619	0.12
651.95	0.11
652.281	0.11
652.612	0.11
652.943	0.11
653.274	0.11
653.604	0.11
653.935	0.11
654.266	0.11
654.596	0.11
654.927	0.11
655.258	0.11
655.588	0.12
655.918	0.11
656.249	0.09
656.579	0.1
656.909	0.1
657.24	0.1
657.57	0.11
657.9	0.11
658.23	0.11
658.56	0.11
658.89	0.11
659.22	0.11
659.55	0.11
659.88	0.12
660.209	0.11
660.539	0.12
660.869	0.12
661.198	0.12
661.528	0.12
661.857	0.11
662.187	0.11
662.516	0.11
662.846	0.11
663.175	0.11
663.504	0.11
663.833	0.11
664.163	0.11
664.492	0.11
664.821	0.1
665.15	0.11
665.479	0.11
665.807	0.1
666.136	0.11
666.465	0.1
666.794	0.1
667.122	0.1
667.451	0.1
667.78	0.1
668.108	0.11
668.437	0.1
668.765	0.1
669.093	0.11
669.422	0.11
669.75	0.11
670.078	0.1
670.406	0.1
670.734	0.11
671.062	0.11
671.39	0.11
671.718	0.1
672.046	0.11
672.374	0.1
672.702	0.1
673.029	0.1
673.357	0.11
673.685	0.11
674.012	0.1
674.34	0.1
674.667	0.11
674.995	0.1
675.322	0.11
675.649	0.1
675.977	0.1
676.304	0.1
676.631	0.1
676.958	0.1
677.285	0.09
677.612	0.1
677.939	0.1
678.266	0.1
678.593	0.09
678.92	0.1
679.246	0.09
679.573	0.09
679.9	0.09
680.226	0.1
680.553	0.08
680.879	0.09
681.206	0.09
681.532	0.09
681.858	0.09
682.184	0.09
682.511	0.09
682.837	0.09
683.163	0.09
683.489	0.09
683.815	0.09
684.141	0.09
684.467	0.09
684.793	0.08
685.118	0.09
685.444	0.09
685.77	0.09
686.095	0.09
686.421	0.09
686.746	0.09
687.072	0.09
687.397	0.09
687.723	0.1
688.048	0.1
688.373	0.09
688.698	0.1
689.023	0.1
689.349	0.09
689.674	0.09
689.999	0.08
690.323	0.09
690.648	0.08
690.973	0.09
691.298	0.08
691.623	0.08
691.947	0.08
692.272	0.08
692.596	0.08
692.921	0.08
693.245	0.08
693.57	0.08
693.894	0.08
694.218	0.08
694.543	0.08
694.867	0.08
695.191	0.08
695.515	0.08
695.839	0.08
696.163	0.09
696.487	0.08
696.811	0.08
697.135	0.08
697.458	0.08
697.782	0.08
698.106	0.08
698.429	0.08
698.753	0.08
699.076	0.08
699.4	0.07
699.723	0.08
700.046	0.07
700.37	0.08
700.693	0.08
701.016	0.08
701.339	0.08
701.662	0.09
701.985	0.08
702.308	0.07
702.631	0.08
702.954	0.09
703.277	0.09
703.599	0.08
703.922	0.08
704.245	0.08
704.567	0.08
704.89	0.08
705.212	0.08
705.535	0.07
705.857	0.07
706.179	0.07
706.502	0.07
706.824	0.07
707.146	0.07
707.468	0.08
707.79	0.07
708.112	0.07
708.434	0.08
708.756	0.07
709.078	0.07
709.399	0.07
709.721	0.06
710.043	0.07
710.364	0.08
710.686	0.07
711.007	0.07
711.329	0.08
711.65	0.08
711.972	0.07
712.293	0.07
712.614	0.08
712.935	0.07
713.256	0.08
713.577	0.08
713.898	0.08
714.219	0.07
714.54	0.07
714.861	0.07
715.182	0.07
715.503	0.07
715.823	0.07
716.144	0.07
716.464	0.06
716.785	0.06
717.105	0.06
717.426	0.07
717.746	0.06
718.066	0.06
718.387	0.06
718.707	0.06
719.027	0.06
719.347	0.06
719.667	0.06
719.987	0.05
720.307	0.05
720.627	0.05
720.947	0.05
721.266	0.05
721.586	0.05
721.906	0.05
722.225	0.04
722.545	0.05
722.864	0.05
723.184	0.05
723.503	0.05
723.823	0.06
724.142	0.05
724.461	0.05
