Data from 12-12-AQDScycling_Absorbance__733__00733.txt Node

Date: Tue Dec 12 13:59:59 EST 2023
User: kyuminlee
Spectrometer: FLMS00943
Trigger mode: 0
Integration Time (sec): 1.000000E-1
Scans to average: 1
Electric dark correction enabled: true
Nonlinearity correction enabled: false
Boxcar width: 0
XAxis mode: Wavelengths
Number of Pixels in Spectrum: 2048
>>>>>Begin Spectral Data<<<<<
179.651	-0
180.037	-0
180.424	-0
180.81	0
181.197	0.31
181.583	0.5
181.97	-0.58
182.356	-0
182.743	-0.73
183.129	0.37
183.515	0.77
183.901	-2.32
184.288	0.12
184.674	-0
185.06	-0
185.446	-0.42
185.832	-0
186.218	0.06
186.604	-0
186.99	-0
187.376	1.31
187.762	0.66
188.148	0.62
188.534	-0.29
188.92	0.1
189.305	-0.01
189.691	0.1
190.077	0.16
190.463	0.02
190.848	0.08
191.234	0.08
191.619	-0
192.005	0.22
192.391	0.13
192.776	0.18
193.161	0.11
193.547	0.12
193.932	0.02
194.318	-0.02
194.703	0.07
195.088	0.1
195.473	0.1
195.859	0.16
196.244	0.19
196.629	0.07
197.014	0.07
197.399	0.13
197.784	0.06
198.169	0.23
198.554	0.27
198.939	0.14
199.324	0.47
199.709	0.05
200.094	0.1
200.478	0.12
200.863	0.18
201.248	0.15
201.633	0.18
202.017	0.08
202.402	0.25
202.787	0.06
203.171	0.17
203.556	0.17
203.94	0.09
204.325	0.19
204.709	0.15
205.093	0.09
205.478	0.06
205.862	-0.02
206.246	0.16
206.631	0.11
207.015	0.27
207.399	0.21
207.783	0.11
208.167	0.1
208.551	0.23
208.935	0.32
209.319	0.12
209.703	0.14
210.087	0.23
210.471	0.14
210.855	0.28
211.239	0.16
211.623	0.34
212.007	0.36
212.39	0.23
212.774	0.1
213.158	0.16
213.541	0.07
213.925	0.14
214.309	0.26
214.692	0.35
215.076	0.05
215.459	0.15
215.842	0.28
216.226	0.2
216.609	0.34
216.993	0.25
217.376	0.39
217.759	0.15
218.142	0.33
218.525	0.39
218.909	0.39
219.292	0.3
219.675	0.43
220.058	0.43
220.441	0.52
220.824	0.46
221.207	0.44
221.59	0.51
221.973	0.49
222.355	0.54
222.738	0.61
223.121	0.66
223.504	0.51
223.886	0.71
224.269	0.66
224.652	0.68
225.034	0.82
225.417	0.82
225.799	0.76
226.182	0.79
226.564	0.94
226.947	0.84
227.329	0.75
227.711	0.89
228.094	0.9
228.476	0.87
228.858	0.75
229.24	0.85
229.623	0.87
230.005	0.88
230.387	0.98
230.769	0.81
231.151	0.86
231.533	1.01
231.915	0.84
232.297	0.97
232.679	0.93
233.061	0.99
233.442	1.15
233.824	0.96
234.206	1.05
234.588	1
234.969	1.05
235.351	1.01
235.733	1.21
236.114	1.28
236.496	1.24
236.877	1.08
237.259	1.05
237.64	0.95
238.022	1.08
238.403	0.95
238.784	1.04
239.165	1.01
239.547	1.09
239.928	1.05
240.309	1.09
240.69	1
241.071	1.06
241.452	1.11
241.834	1.05
242.215	1.09
242.595	1.04
242.976	1.09
243.357	1.21
243.738	0.9
244.119	1.24
244.5	1.07
244.881	1.27
245.261	1.22
245.642	1.18
246.023	1.15
246.403	1.1
246.784	1.26
247.164	1.23
247.545	1.18
247.925	1.33
248.306	1.21
248.686	1.38
249.067	1.3
249.447	1.28
249.827	1.38
250.207	1.4
250.588	1.27
250.968	1.44
251.348	1.33
251.728	1.33
252.108	1.31
252.488	1.32
252.868	1.4
253.248	1.36
253.628	1.39
254.008	1.41
254.388	1.29
254.768	1.44
255.147	1.31
255.527	1.45
255.907	1.26
256.287	1.31
256.666	1.36
257.046	1.36
257.425	1.42
257.805	1.24
258.184	1.36
258.564	1.28
258.943	1.38
259.323	1.46
259.702	1.35
260.081	1.44
260.461	1.51
260.84	1.49
261.219	1.69
261.598	1.5
261.977	1.44
262.356	1.45
262.736	1.46
263.115	1.6
263.494	1.31
263.873	1.49
264.251	1.58
264.63	1.51
265.009	1.41
265.388	1.47
265.767	1.36
266.145	1.33
266.524	1.42
266.903	1.31
267.281	1.31
267.66	1.54
268.039	1.52
268.417	1.34
268.796	1.4
269.174	1.36
269.552	1.25
269.931	1.41
270.309	1.28
270.687	1.44
271.066	1.55
271.444	1.45
271.822	1.56
272.2	1.4
272.578	1.51
272.956	1.41
273.334	1.38
273.712	1.34
274.09	1.49
274.468	1.48
274.846	1.46
275.224	1.41
275.602	1.36
275.98	1.57
276.357	1.32
276.735	1.31
277.113	1.43
277.49	1.37
277.868	1.3
278.246	1.35
278.623	1.4
279.001	1.38
279.378	1.41
279.756	1.48
280.133	1.48
280.51	1.42
280.888	1.39
281.265	1.48
281.642	1.52
282.019	1.7
282.396	1.59
282.773	1.5
283.151	1.44
283.528	1.47
283.905	1.4
284.282	1.47
284.659	1.54
285.035	1.3
285.412	1.31
285.789	1.64
286.166	1.54
286.543	1.59
286.919	1.52
287.296	1.37
287.673	1.71
288.049	1.53
288.426	1.56
288.802	1.57
289.179	1.38
289.555	1.6
289.932	1.34
290.308	1.27
290.684	1.46
291.061	1.37
291.437	1.38
291.813	1.32
292.189	1.4
292.565	1.29
292.942	1.39
293.318	1.38
293.694	1.4
294.07	1.35
294.446	1.25
294.822	1.47
295.197	1.38
295.573	1.41
295.949	1.42
296.325	1.54
296.701	1.49
297.076	1.55
297.452	1.69
297.828	1.44
298.203	1.61
298.579	1.35
298.954	1.53
299.33	1.48
299.705	1.51
300.081	1.48
300.456	1.5
300.831	1.53
301.206	1.46
301.582	1.56
301.957	1.52
302.332	1.54
302.707	1.41
303.082	1.42
303.457	1.44
303.832	1.47
304.207	1.44
304.582	1.45
304.957	1.46
305.332	1.53
305.707	1.47
306.082	1.55
306.456	1.65
306.831	1.58
307.206	1.57
307.58	1.53
307.955	1.45
308.33	1.52
308.704	1.51
309.079	1.44
309.453	1.51
309.828	1.45
310.202	1.45
310.576	1.49
310.951	1.55
311.325	1.56
311.699	1.56
312.073	1.42
312.447	1.49
312.821	1.38
313.196	1.59
313.57	1.39
313.944	1.45
314.317	1.31
314.691	1.48
315.065	1.49
315.439	1.55
315.813	1.55
316.187	1.44
316.56	1.61
316.934	1.63
317.308	1.47
317.681	1.58
318.055	1.44
318.428	1.54
318.802	1.52
319.175	1.53
319.549	1.55
319.922	1.28
320.295	1.45
320.669	1.78
321.042	1.52
321.415	1.7
321.788	1.64
322.162	1.44
322.535	1.6
322.908	1.58
323.281	1.52
323.654	1.58
324.027	1.49
324.4	1.52
324.773	1.53
325.145	1.51
325.518	1.39
325.891	1.37
326.264	1.57
326.636	1.35
327.009	1.44
327.382	1.44
327.754	1.55
328.127	1.48
328.499	1.54
328.872	1.55
329.244	1.46
329.616	1.4
329.989	1.46
330.361	1.42
330.733	1.47
331.106	1.51
331.478	1.67
331.85	1.49
332.222	1.47
332.594	1.5
332.966	1.56
333.338	1.67
333.71	1.55
334.082	1.72
334.454	1.54
334.826	1.54
335.197	1.56
335.569	1.63
335.941	1.39
336.312	1.51
336.684	1.48
337.056	1.6
337.427	1.64
337.799	1.72
338.17	1.67
338.542	1.45
338.913	1.69
339.284	1.54
339.656	1.52
340.027	1.52
340.398	1.65
340.769	1.52
341.141	1.64
341.512	1.56
341.883	1.63
342.254	1.6
342.625	1.61
342.996	1.57
343.367	1.38
343.738	1.44
344.108	1.43
344.479	1.58
344.85	1.48
345.221	1.59
345.591	1.48
345.962	1.39
346.333	1.51
346.703	1.41
347.074	1.43
347.444	1.34
347.815	1.45
348.185	1.43
348.556	1.43
348.926	1.44
349.296	1.4
349.666	1.36
350.037	1.31
350.407	1.2
350.777	1.34
351.147	1.32
351.517	1.39
351.887	1.42
352.257	1.37
352.627	1.25
352.997	1.4
353.367	1.41
353.737	1.45
354.106	1.39
354.476	1.34
354.846	1.47
355.216	1.34
355.585	1.44
355.955	1.29
356.324	1.41
356.694	1.34
357.063	1.26
357.433	1.29
357.802	1.33
358.171	1.26
358.541	1.27
358.91	1.32
359.279	1.27
359.648	1.19
360.017	1.22
360.387	1.24
360.756	1.18
361.125	1.2
361.494	1.19
361.863	1.13
362.231	1.12
362.6	1.16
362.969	1.2
363.338	1.11
363.707	1.16
364.075	1.07
364.444	1.05
364.813	1.09
365.181	1.09
365.55	1.08
365.918	1.09
366.287	1.1
366.655	1.05
367.024	1.05
367.392	1.05
367.76	1.03
368.128	1.06
368.497	1.01
368.865	1.05
369.233	1.04
369.601	1.02
369.969	1.02
370.337	1.02
370.705	1.01
371.073	1
371.441	0.99
371.809	1.01
372.177	0.96
372.544	1
372.912	0.95
373.28	0.98
373.647	0.97
374.015	1.02
374.383	1.02
374.75	1.01
375.118	0.94
375.485	0.97
375.853	1.02
376.22	0.97
376.587	0.96
376.955	0.95
377.322	0.96
377.689	0.96
378.056	1
378.423	0.93
378.79	0.96
379.157	0.98
379.524	0.96
379.891	0.97
380.258	0.94
380.625	0.98
380.992	0.98
381.359	0.96
381.726	1.04
382.092	0.93
382.459	0.94
382.826	0.99
383.192	1
383.559	0.99
383.925	1.04
384.292	0.98
384.658	1.08
385.025	1.07
385.391	1.03
385.757	1.03
386.123	1.05
386.49	1.04
386.856	1.09
387.222	1.08
387.588	1
387.954	1.08
388.32	1.08
388.686	1.1
389.052	1.09
389.418	1.11
389.784	1.06
390.15	1.08
390.515	1.02
390.881	1.11
391.247	1.05
391.613	1.11
391.978	1.04
392.344	1.11
392.709	1.08
393.075	1.08
393.44	1.06
393.806	1.08
394.171	1.05
394.536	1.07
394.902	1.11
395.267	1.01
395.632	1.01
395.997	1.04
396.362	1.02
396.727	1.05
397.092	1.03
397.457	1.01
397.822	1.03
398.187	1.05
398.552	1.03
398.917	1.04
399.282	1
399.646	0.98
400.011	1.04
400.376	0.96
400.74	0.99
401.105	0.99
401.47	1
401.834	0.99
402.199	0.98
402.563	0.93
402.927	0.92
403.292	0.97
403.656	0.95
404.02	0.94
404.384	0.92
404.749	0.93
405.113	0.92
405.477	0.92
405.841	0.91
406.205	0.88
406.569	0.85
406.933	0.84
407.296	0.85
407.66	0.87
408.024	0.85
408.388	0.89
408.752	0.86
409.115	0.84
409.479	0.86
409.842	0.81
410.206	0.79
410.569	0.81
410.933	0.84
411.296	0.78
411.66	0.85
412.023	0.75
412.386	0.81
412.749	0.77
413.113	0.82
413.476	0.76
413.839	0.74
414.202	0.79
414.565	0.77
414.928	0.75
415.291	0.75
415.654	0.74
416.017	0.77
416.38	0.73
416.742	0.75
417.105	0.71
417.468	0.72
417.83	0.72
418.193	0.77
418.556	0.75
418.918	0.75
419.281	0.73
419.643	0.72
420.005	0.73
420.368	0.71
420.73	0.69
421.092	0.7
421.455	0.71
421.817	0.69
422.179	0.69
422.541	0.69
422.903	0.72
423.265	0.69
423.627	0.7
423.989	0.71
424.351	0.68
424.713	0.69
425.075	0.67
425.436	0.67
425.798	0.69
426.16	0.67
426.521	0.67
426.883	0.67
427.245	0.68
427.606	0.65
427.967	0.65
428.329	0.65
428.69	0.68
429.052	0.66
429.413	0.67
429.774	0.68
430.135	0.67
430.497	0.64
430.858	0.63
431.219	0.63
431.58	0.65
431.941	0.63
432.302	0.64
432.663	0.62
433.024	0.64
433.384	0.64
433.745	0.6
434.106	0.63
434.467	0.62
434.827	0.62
435.188	0.62
435.548	0.63
435.909	0.61
436.269	0.63
436.63	0.6
436.99	0.61
437.351	0.62
437.711	0.6
438.071	0.6
438.431	0.6
438.792	0.59
439.152	0.59
439.512	0.56
439.872	0.6
440.232	0.6
440.592	0.59
440.952	0.6
441.312	0.58
441.671	0.57
442.031	0.56
442.391	0.58
442.751	0.58
443.11	0.56
443.47	0.54
443.83	0.53
444.189	0.55
444.549	0.55
444.908	0.55
445.267	0.55
445.627	0.54
445.986	0.54
446.345	0.52
446.705	0.52
447.064	0.53
447.423	0.53
447.782	0.53
448.141	0.52
448.5	0.51
448.859	0.51
449.218	0.51
449.577	0.51
449.936	0.52
450.295	0.51
450.653	0.51
451.012	0.5
451.371	0.5
451.729	0.51
452.088	0.5
452.447	0.49
452.805	0.5
453.163	0.5
453.522	0.51
453.88	0.48
454.239	0.48
454.597	0.47
454.955	0.46
455.313	0.47
455.671	0.45
456.029	0.45
456.388	0.45
456.746	0.46
457.104	0.44
457.461	0.44
457.819	0.44
458.177	0.42
458.535	0.42
458.893	0.42
459.25	0.42
459.608	0.41
459.966	0.41
460.323	0.4
460.681	0.39
461.038	0.4
461.396	0.39
461.753	0.39
462.111	0.38
462.468	0.38
462.825	0.38
463.182	0.37
463.54	0.36
463.897	0.37
464.254	0.36
464.611	0.36
464.968	0.36
465.325	0.35
465.682	0.34
466.039	0.35
466.395	0.34
466.752	0.34
467.109	0.34
467.466	0.34
467.822	0.34
468.179	0.32
468.535	0.32
468.892	0.32
469.248	0.31
469.605	0.31
469.961	0.32
470.318	0.32
470.674	0.31
471.03	0.3
471.386	0.3
471.743	0.29
472.099	0.29
472.455	0.29
472.811	0.28
473.167	0.28
473.523	0.28
473.879	0.27
474.235	0.28
474.59	0.27
474.946	0.27
475.302	0.26
475.657	0.26
476.013	0.26
476.369	0.25
476.724	0.26
477.08	0.25
477.435	0.25
477.791	0.25
478.146	0.24
478.501	0.24
478.857	0.24
479.212	0.24
479.567	0.23
479.922	0.22
480.277	0.22
480.632	0.22
480.987	0.22
481.342	0.22
481.697	0.21
482.052	0.21
482.407	0.2
482.762	0.2
483.116	0.2
483.471	0.2
483.826	0.2
484.18	0.19
484.535	0.19
484.89	0.19
485.244	0.19
485.598	0.19
485.953	0.19
486.307	0.18
486.661	0.19
487.016	0.18
487.37	0.18
487.724	0.18
488.078	0.18
488.432	0.18
488.786	0.17
489.14	0.18
489.494	0.17
489.848	0.17
490.202	0.16
490.556	0.17
490.91	0.17
491.263	0.16
491.617	0.16
491.971	0.16
492.324	0.16
492.678	0.16
493.031	0.16
493.385	0.16
493.738	0.16
494.091	0.16
494.445	0.16
494.798	0.16
495.151	0.16
495.504	0.15
495.857	0.15
496.21	0.15
496.564	0.15
496.916	0.16
497.269	0.15
497.622	0.14
497.975	0.14
498.328	0.15
498.681	0.14
499.033	0.14
499.386	0.14
499.739	0.14
500.091	0.14
500.444	0.14
500.796	0.14
501.149	0.13
501.501	0.14
501.854	0.14
502.206	0.13
502.558	0.14
502.91	0.13
503.263	0.13
503.615	0.13
503.967	0.13
504.319	0.14
504.671	0.14
505.023	0.13
505.375	0.13
505.726	0.14
506.078	0.13
506.43	0.13
506.782	0.13
507.133	0.13
507.485	0.13
507.837	0.14
508.188	0.14
508.54	0.13
508.891	0.14
509.243	0.12
509.594	0.13
509.945	0.13
510.296	0.12
510.648	0.13
510.999	0.12
511.35	0.13
511.701	0.13
512.052	0.13
512.403	0.13
512.754	0.13
513.105	0.13
513.456	0.13
513.807	0.12
514.157	0.12
514.508	0.13
514.859	0.12
515.209	0.13
515.56	0.13
515.91	0.12
516.261	0.13
516.611	0.12
516.962	0.13
517.312	0.13
517.662	0.13
518.013	0.13
518.363	0.13
518.713	0.13
519.063	0.13
519.413	0.13
519.763	0.12
520.113	0.13
520.463	0.14
520.813	0.14
521.163	0.13
521.512	0.14
521.862	0.13
522.212	0.13
522.562	0.13
522.911	0.13
523.261	0.13
523.61	0.13
523.96	0.13
524.309	0.14
524.658	0.13
525.008	0.13
525.357	0.13
525.706	0.14
526.056	0.12
526.405	0.13
526.754	0.12
527.103	0.12
527.452	0.13
527.801	0.13
528.15	0.13
528.499	0.14
528.847	0.13
529.196	0.13
529.545	0.13
529.893	0.14
530.242	0.13
530.591	0.14
530.939	0.14
531.288	0.14
531.636	0.14
531.985	0.14
532.333	0.14
532.681	0.14
533.029	0.14
533.378	0.13
533.726	0.14
534.074	0.14
534.422	0.13
534.77	0.14
535.118	0.13
535.466	0.13
535.814	0.13
536.162	0.14
536.509	0.14
536.857	0.14
537.205	0.14
537.552	0.14
537.9	0.14
538.248	0.13
538.595	0.14
538.943	0.14
539.29	0.14
539.637	0.14
539.985	0.15
540.332	0.13
540.679	0.14
541.026	0.12
541.373	0.14
541.721	0.13
542.068	0.14
542.415	0.14
542.762	0.14
543.108	0.13
543.455	0.13
543.802	0.13
544.149	0.13
544.496	0.14
544.842	0.13
545.189	0.13
545.535	0.12
545.882	0.13
546.228	0.12
546.575	0.12
546.921	0.12
547.267	0.12
547.614	0.14
547.96	0.13
548.306	0.12
548.652	0.13
548.998	0.13
549.344	0.13
549.69	0.13
550.036	0.12
550.382	0.12
550.728	0.13
551.074	0.13
551.42	0.13
551.765	0.13
552.111	0.14
552.457	0.14
552.802	0.12
553.148	0.13
553.493	0.14
553.839	0.13
554.184	0.14
554.529	0.13
554.875	0.13
555.22	0.14
555.565	0.13
555.91	0.13
556.255	0.14
556.6	0.14
556.945	0.13
557.29	0.14
557.635	0.14
557.98	0.14
558.325	0.13
558.67	0.14
559.014	0.14
559.359	0.13
559.704	0.13
560.048	0.13
560.393	0.13
560.737	0.12
561.082	0.14
561.426	0.12
561.77	0.14
562.115	0.12
562.459	0.13
562.803	0.13
563.147	0.14
563.491	0.13
563.835	0.13
564.179	0.13
564.523	0.14
564.867	0.13
565.211	0.14
565.555	0.14
565.899	0.14
566.242	0.14
566.586	0.13
566.93	0.13
567.273	0.15
567.617	0.14
567.96	0.14
568.304	0.14
568.647	0.14
568.99	0.13
569.334	0.15
569.677	0.14
570.02	0.14
570.363	0.14
570.706	0.14
571.049	0.14
571.392	0.14
571.735	0.13
572.078	0.14
572.421	0.15
572.764	0.14
573.106	0.15
573.449	0.14
573.792	0.14
574.134	0.14
574.477	0.14
574.819	0.13
575.162	0.14
575.504	0.13
575.847	0.14
576.189	0.14
576.531	0.14
576.873	0.13
577.215	0.14
577.558	0.15
577.9	0.14
578.242	0.14
578.584	0.13
578.926	0.15
579.267	0.14
579.609	0.14
579.951	0.14
580.293	0.14
580.634	0.14
580.976	0.14
581.318	0.13
581.659	0.13
582.001	0.14
582.342	0.14
582.683	0.14
583.025	0.14
583.366	0.13
583.707	0.14
584.049	0.13
584.39	0.13
584.731	0.13
585.072	0.13
585.413	0.14
585.754	0.13
586.095	0.14
586.435	0.14
586.776	0.14
587.117	0.14
587.458	0.14
587.798	0.13
588.139	0.13
588.48	0.13
588.82	0.13
589.161	0.13
589.501	0.13
589.841	0.13
590.182	0.13
590.522	0.13
590.862	0.14
591.202	0.13
591.542	0.13
591.882	0.13
592.222	0.13
592.562	0.13
592.902	0.13
593.242	0.13
593.582	0.14
593.922	0.13
594.261	0.12
594.601	0.13
594.941	0.12
595.28	0.13
595.62	0.13
595.959	0.13
596.299	0.13
596.638	0.13
596.977	0.14
597.317	0.13
597.656	0.13
597.995	0.14
598.334	0.14
598.673	0.14
599.012	0.13
599.351	0.14
599.69	0.14
600.029	0.15
600.368	0.14
600.707	0.14
601.046	0.14
601.384	0.15
601.723	0.14
602.061	0.13
602.4	0.14
602.738	0.14
603.077	0.14
603.415	0.13
603.754	0.15
604.092	0.13
604.43	0.14
604.768	0.14
605.107	0.14
605.445	0.13
605.783	0.13
606.121	0.14
606.459	0.13
606.796	0.14
607.134	0.13
607.472	0.13
607.81	0.14
608.148	0.13
608.485	0.14
608.823	0.14
609.16	0.13
609.498	0.13
609.835	0.13
610.173	0.13
610.51	0.13
610.847	0.13
611.185	0.14
611.522	0.13
611.859	0.14
612.196	0.14
612.533	0.14
612.87	0.14
613.207	0.13
613.544	0.14
613.881	0.15
614.217	0.14
614.554	0.14
614.891	0.14
615.228	0.14
615.564	0.14
615.901	0.14
616.237	0.14
616.574	0.14
616.91	0.15
617.246	0.14
617.583	0.14
617.919	0.15
618.255	0.14
618.591	0.14
618.927	0.14
619.263	0.15
619.599	0.15
619.935	0.14
620.271	0.14
620.607	0.14
620.943	0.14
621.279	0.15
621.614	0.14
621.95	0.14
622.286	0.14
622.621	0.14
622.957	0.14
623.292	0.13
623.627	0.14
623.963	0.13
624.298	0.14
624.633	0.14
624.968	0.13
625.304	0.14
625.639	0.13
625.974	0.13
626.309	0.13
626.644	0.13
626.979	0.14
627.313	0.13
627.648	0.14
627.983	0.14
628.318	0.12
628.652	0.12
628.987	0.13
629.321	0.14
629.656	0.12
629.99	0.12
630.325	0.12
630.659	0.12
630.993	0.12
631.327	0.13
631.662	0.12
631.996	0.12
632.33	0.12
632.664	0.13
632.998	0.12
633.332	0.12
633.666	0.12
633.999	0.12
634.333	0.12
634.667	0.12
635.001	0.12
635.334	0.12
635.668	0.11
636.001	0.12
636.335	0.11
636.668	0.12
637.001	0.11
637.335	0.11
637.668	0.12
638.001	0.11
638.334	0.12
638.668	0.12
639.001	0.12
639.334	0.12
639.667	0.12
639.999	0.12
640.332	0.12
640.665	0.11
640.998	0.12
641.331	0.12
641.663	0.11
641.996	0.12
642.328	0.12
642.661	0.12
642.993	0.12
643.326	0.12
643.658	0.12
643.99	0.11
644.323	0.12
644.655	0.12
644.987	0.12
645.319	0.12
645.651	0.12
645.983	0.13
646.315	0.12
646.647	0.12
646.979	0.13
647.31	0.13
647.642	0.12
647.974	0.13
648.305	0.13
648.637	0.12
648.968	0.12
649.3	0.12
649.631	0.12
649.963	0.12
650.294	0.12
650.625	0.12
650.957	0.13
651.288	0.12
651.619	0.13
651.95	0.13
652.281	0.12
652.612	0.12
652.943	0.13
653.274	0.13
653.604	0.12
653.935	0.13
654.266	0.12
654.596	0.12
654.927	0.11
655.258	0.12
655.588	0.13
655.918	0.12
656.249	0.1
656.579	0.12
656.909	0.12
657.24	0.12
657.57	0.12
657.9	0.11
658.23	0.11
658.56	0.12
658.89	0.12
659.22	0.11
659.55	0.11
659.88	0.11
660.209	0.12
660.539	0.12
660.869	0.12
661.198	0.12
661.528	0.12
661.857	0.11
662.187	0.11
662.516	0.12
662.846	0.1
663.175	0.11
663.504	0.11
663.833	0.11
664.163	0.12
664.492	0.11
664.821	0.11
665.15	0.11
665.479	0.11
665.807	0.11
666.136	0.11
666.465	0.11
666.794	0.11
667.122	0.12
667.451	0.11
667.78	0.12
668.108	0.12
668.437	0.12
668.765	0.12
669.093	0.12
669.422	0.12
669.75	0.12
670.078	0.12
670.406	0.12
670.734	0.12
671.062	0.12
671.39	0.11
671.718	0.11
672.046	0.11
672.374	0.11
672.702	0.11
673.029	0.1
673.357	0.11
673.685	0.11
674.012	0.11
674.34	0.11
674.667	0.11
674.995	0.11
675.322	0.12
675.649	0.11
675.977	0.11
676.304	0.11
676.631	0.11
676.958	0.11
677.285	0.1
677.612	0.1
677.939	0.11
678.266	0.11
678.593	0.1
678.92	0.11
679.246	0.1
679.573	0.11
679.9	0.1
680.226	0.11
680.553	0.1
680.879	0.11
681.206	0.1
681.532	0.11
681.858	0.1
682.184	0.1
682.511	0.11
682.837	0.11
683.163	0.11
683.489	0.11
683.815	0.11
684.141	0.11
684.467	0.1
684.793	0.1
685.118	0.11
685.444	0.11
685.77	0.11
686.095	0.11
686.421	0.1
686.746	0.11
687.072	0.1
687.397	0.1
687.723	0.11
688.048	0.11
688.373	0.1
688.698	0.1
689.023	0.1
689.349	0.1
689.674	0.1
689.999	0.1
690.323	0.09
690.648	0.09
690.973	0.09
691.298	0.1
691.623	0.09
691.947	0.09
692.272	0.09
692.596	0.1
692.921	0.1
693.245	0.1
693.57	0.1
693.894	0.1
694.218	0.11
694.543	0.1
694.867	0.1
695.191	0.09
695.515	0.1
695.839	0.09
696.163	0.1
696.487	0.1
696.811	0.1
697.135	0.1
697.458	0.1
697.782	0.1
698.106	0.1
698.429	0.1
698.753	0.1
699.076	0.09
699.4	0.09
699.723	0.09
700.046	0.09
700.37	0.1
700.693	0.1
701.016	0.1
701.339	0.1
701.662	0.1
701.985	0.1
702.308	0.09
702.631	0.1
702.954	0.09
703.277	0.1
703.599	0.1
703.922	0.09
704.245	0.09
704.567	0.09
704.89	0.09
705.212	0.09
705.535	0.09
705.857	0.08
706.179	0.09
706.502	0.08
706.824	0.08
707.146	0.09
707.468	0.08
707.79	0.09
708.112	0.09
708.434	0.09
708.756	0.09
709.078	0.09
709.399	0.09
709.721	0.09
710.043	0.1
710.364	0.09
710.686	0.09
711.007	0.09
711.329	0.1
711.65	0.09
711.972	0.09
712.293	0.09
712.614	0.1
712.935	0.1
713.256	0.09
713.577	0.1
713.898	0.09
714.219	0.09
714.54	0.08
714.861	0.08
715.182	0.09
715.503	0.09
715.823	0.09
716.144	0.08
716.464	0.08
716.785	0.08
717.105	0.08
717.426	0.08
717.746	0.08
718.066	0.07
718.387	0.08
718.707	0.07
719.027	0.08
719.347	0.07
719.667	0.08
719.987	0.07
720.307	0.08
720.627	0.08
720.947	0.08
721.266	0.08
721.586	0.07
721.906	0.08
722.225	0.07
722.545	0.08
722.864	0.08
723.184	0.09
723.503	0.08
723.823	0.08
724.142	0.07
724.461	0.08
