Data from 12-12-AQDScycling_Absorbance__79__00079.txt Node

Date: Tue Dec 12 11:16:29 EST 2023
User: kyuminlee
Spectrometer: FLMS00943
Trigger mode: 0
Integration Time (sec): 1.000000E-1
Scans to average: 1
Electric dark correction enabled: true
Nonlinearity correction enabled: false
Boxcar width: 0
XAxis mode: Wavelengths
Number of Pixels in Spectrum: 2048
>>>>>Begin Spectral Data<<<<<
179.651	-0
180.037	-0
180.424	-0
180.81	-0.33
181.197	0.35
181.583	-0.33
181.97	-0.07
182.356	-0
182.743	-1.2
183.129	0.04
183.515	-0
183.901	-0
184.288	0.35
184.674	0.38
185.06	-0.8
185.446	-0
185.832	-0
186.218	0.15
186.604	0.37
186.99	-0
187.376	0.43
187.762	-0.18
188.148	0.36
188.534	-0.23
188.92	0.15
189.305	0.06
189.691	0.19
190.077	0.11
190.463	0.25
190.848	0.05
191.234	0.12
191.619	0.05
192.005	0.18
192.391	0.3
192.776	0.14
193.161	0.06
193.547	0.23
193.932	0.1
194.318	0.15
194.703	0.03
195.088	0.09
195.473	0.12
195.859	0.14
196.244	0.28
196.629	0.08
197.014	0.26
197.399	0.11
197.784	0.42
198.169	0.22
198.554	0.22
198.939	0.16
199.324	0.09
199.709	0.12
200.094	0.22
200.478	0.31
200.863	0.23
201.248	0.21
201.633	0.11
202.017	0.01
202.402	0.15
202.787	0.06
203.171	0.14
203.556	0.21
203.94	0.27
204.325	0.25
204.709	0.17
205.093	0.15
205.478	0.28
205.862	0.09
206.246	0.1
206.631	0.15
207.015	0.09
207.399	0.23
207.783	0.21
208.167	0.15
208.551	0.35
208.935	0.24
209.319	0.04
209.703	0.12
210.087	0.29
210.471	0.22
210.855	0.09
211.239	0.3
211.623	0.13
212.007	0.41
212.39	0.2
212.774	0.54
213.158	0.06
213.541	0.17
213.925	0.27
214.309	0.23
214.692	0.37
215.076	0.25
215.459	0.14
215.842	0.11
216.226	0.29
216.609	0.26
216.993	0.26
217.376	0.78
217.759	0.21
218.142	0.3
218.525	0.75
218.909	0.33
219.292	0.33
219.675	0.56
220.058	0.42
220.441	0.52
220.824	0.43
221.207	0.42
221.59	0.56
221.973	0.44
222.355	0.56
222.738	0.62
223.121	0.73
223.504	0.52
223.886	0.68
224.269	0.73
224.652	0.7
225.034	0.84
225.417	0.77
225.799	0.8
226.182	0.86
226.564	0.86
226.947	0.7
227.329	0.82
227.711	0.91
228.094	1
228.476	0.95
228.858	0.8
229.24	0.84
229.623	0.9
230.005	0.81
230.387	0.83
230.769	0.78
231.151	1.05
231.533	1.01
231.915	0.86
232.297	1.12
232.679	1.04
233.061	1.08
233.442	1.11
233.824	1.06
234.206	1.18
234.588	1.08
234.969	1.13
235.351	1.1
235.733	1.08
236.114	1.1
236.496	1.13
236.877	1.14
237.259	1.03
237.64	1.03
238.022	1.07
238.403	1.01
238.784	1.04
239.165	1
239.547	1.1
239.928	1.06
240.309	1.2
240.69	1.18
241.071	1.15
241.452	1.38
241.834	1.15
242.215	1.07
242.595	1.16
242.976	1.18
243.357	1.2
243.738	1.01
244.119	1.34
244.5	1.14
244.881	1.15
245.261	1.28
245.642	1.19
246.023	1.21
246.403	1.33
246.784	1.19
247.164	1.22
247.545	1.16
247.925	1.47
248.306	1.26
248.686	1.56
249.067	1.26
249.447	1.2
249.827	1.45
250.207	1.41
250.588	1.33
250.968	1.5
251.348	1.41
251.728	1.49
252.108	1.37
252.488	1.41
252.868	1.42
253.248	1.36
253.628	1.35
254.008	1.64
254.388	1.31
254.768	1.41
255.147	1.32
255.527	1.47
255.907	1.59
256.287	1.33
256.666	1.44
257.046	1.41
257.425	1.52
257.805	1.32
258.184	1.33
258.564	1.38
258.943	1.29
259.323	1.51
259.702	1.53
260.081	1.43
260.461	1.5
260.84	1.47
261.219	1.75
261.598	1.53
261.977	1.45
262.356	1.49
262.736	1.56
263.115	1.57
263.494	1.48
263.873	1.43
264.251	1.58
264.63	1.48
265.009	1.54
265.388	1.46
265.767	1.28
266.145	1.44
266.524	1.42
266.903	1.45
267.281	1.35
267.66	1.44
268.039	1.6
268.417	1.48
268.796	1.46
269.174	1.39
269.552	1.33
269.931	1.53
270.309	1.43
270.687	1.64
271.066	1.79
271.444	1.59
271.822	1.49
272.2	1.39
272.578	1.41
272.956	1.39
273.334	1.41
273.712	1.44
274.09	1.43
274.468	1.5
274.846	1.26
275.224	1.44
275.602	1.5
275.98	1.52
276.357	1.43
276.735	1.5
277.113	1.47
277.49	1.44
277.868	1.3
278.246	1.47
278.623	1.34
279.001	1.32
279.378	1.29
279.756	1.63
280.133	1.55
280.51	1.39
280.888	1.57
281.265	1.38
281.642	1.51
282.019	1.46
282.396	1.47
282.773	1.55
283.151	1.47
283.528	1.55
283.905	1.42
284.282	1.56
284.659	1.58
285.035	1.42
285.412	1.27
285.789	1.56
286.166	1.49
286.543	1.54
286.919	1.57
287.296	1.51
287.673	1.88
288.049	1.43
288.426	1.57
288.802	1.49
289.179	1.58
289.555	1.62
289.932	1.44
290.308	1.34
290.684	1.46
291.061	1.38
291.437	1.46
291.813	1.38
292.189	1.37
292.565	1.46
292.942	1.3
293.318	1.29
293.694	1.49
294.07	1.31
294.446	1.46
294.822	1.76
295.197	1.45
295.573	1.45
295.949	1.55
296.325	1.48
296.701	1.46
297.076	1.46
297.452	1.47
297.828	1.41
298.203	1.56
298.579	1.41
298.954	1.42
299.33	1.38
299.705	1.54
300.081	1.4
300.456	1.53
300.831	1.44
301.206	1.31
301.582	1.47
301.957	1.33
302.332	1.45
302.707	1.36
303.082	1.31
303.457	1.39
303.832	1.44
304.207	1.27
304.582	1.29
304.957	1.3
305.332	1.39
305.707	1.33
306.082	1.26
306.456	1.3
306.831	1.19
307.206	1.31
307.58	1.27
307.955	1.21
308.33	1.16
308.704	1.19
309.079	1.18
309.453	1.31
309.828	1.23
310.202	1.16
310.576	1.15
310.951	1.21
311.325	1.2
311.699	1.23
312.073	1.16
312.447	1.12
312.821	1.09
313.196	1.14
313.57	1.14
313.944	1.1
314.317	1.13
314.691	1.18
315.065	1.12
315.439	1.18
315.813	1.22
316.187	1.15
316.56	1.17
316.934	1.17
317.308	1.14
317.681	1.12
318.055	1.16
318.428	1.11
318.802	1.31
319.175	1.18
319.549	1.12
319.922	1.13
320.295	1.13
320.669	1.23
321.042	1.13
321.415	1.17
321.788	1.14
322.162	1.13
322.535	1.14
322.908	1.16
323.281	1.12
323.654	1.26
324.027	1.1
324.4	1.17
324.773	1.16
325.145	1.16
325.518	1.1
325.891	1.12
326.264	1.23
326.636	1.14
327.009	1.16
327.382	1.09
327.754	1.17
328.127	1.18
328.499	1.23
328.872	1.21
329.244	1.22
329.616	1.17
329.989	1.19
330.361	1.25
330.733	1.19
331.106	1.15
331.478	1.21
331.85	1.22
332.222	1.22
332.594	1.2
332.966	1.2
333.338	1.3
333.71	1.33
334.082	1.27
334.454	1.31
334.826	1.24
335.197	1.19
335.569	1.21
335.941	1.21
336.312	1.22
336.684	1.29
337.056	1.21
337.427	1.32
337.799	1.26
338.17	1.26
338.542	1.24
338.913	1.32
339.284	1.24
339.656	1.27
340.027	1.27
340.398	1.27
340.769	1.22
341.141	1.36
341.512	1.25
341.883	1.3
342.254	1.34
342.625	1.33
342.996	1.26
343.367	1.29
343.738	1.31
344.108	1.27
344.479	1.28
344.85	1.19
345.221	1.25
345.591	1.23
345.962	1.19
346.333	1.35
346.703	1.24
347.074	1.23
347.444	1.17
347.815	1.42
348.185	1.32
348.556	1.33
348.926	1.27
349.296	1.45
349.666	1.22
350.037	1.21
350.407	1.18
350.777	1.25
351.147	1.27
351.517	1.3
351.887	1.27
352.257	1.26
352.627	1.27
352.997	1.24
353.367	1.32
353.737	1.42
354.106	1.37
354.476	1.35
354.846	1.53
355.216	1.38
355.585	1.41
355.955	1.36
356.324	1.38
356.694	1.33
357.063	1.42
357.433	1.37
357.802	1.36
358.171	1.51
358.541	1.39
358.91	1.41
359.279	1.46
359.648	1.4
360.017	1.42
360.387	1.44
360.756	1.41
361.125	1.46
361.494	1.48
361.863	1.43
362.231	1.37
362.6	1.47
362.969	1.46
363.338	1.37
363.707	1.45
364.075	1.55
364.444	1.38
364.813	1.58
365.181	1.53
365.55	1.4
365.918	1.53
366.287	1.54
366.655	1.53
367.024	1.58
367.392	1.64
367.76	1.47
368.128	1.61
368.497	1.56
368.865	1.51
369.233	1.53
369.601	1.51
369.969	1.51
370.337	1.61
370.705	1.52
371.073	1.55
371.441	1.48
371.809	1.42
372.177	1.51
372.544	1.46
372.912	1.46
373.28	1.57
373.647	1.55
374.015	1.7
374.383	1.79
374.75	1.57
375.118	1.49
375.485	1.65
375.853	1.69
376.22	1.51
376.587	1.48
376.955	1.72
377.322	1.58
377.689	1.44
378.056	1.47
378.423	1.53
378.79	1.51
379.157	1.54
379.524	1.49
379.891	1.46
380.258	1.52
380.625	1.67
380.992	1.51
381.359	1.63
381.726	1.79
382.092	1.49
382.459	1.62
382.826	1.59
383.192	1.5
383.559	1.56
383.925	1.61
384.292	1.51
384.658	1.71
385.025	1.55
385.391	1.76
385.757	1.62
386.123	1.75
386.49	1.74
386.856	1.69
387.222	1.59
387.588	1.59
387.954	1.81
388.32	1.62
388.686	1.55
389.052	1.62
389.418	1.55
389.784	1.57
390.15	1.74
390.515	1.42
390.881	1.55
391.247	1.45
391.613	1.64
391.978	1.49
392.344	1.72
392.709	1.69
393.075	1.54
393.44	1.5
393.806	1.54
394.171	1.51
394.536	1.47
394.902	1.6
395.267	1.51
395.632	1.41
395.997	1.51
396.362	1.46
396.727	1.72
397.092	1.47
397.457	1.55
397.822	1.55
398.187	1.68
398.552	1.6
398.917	1.76
399.282	1.51
399.646	1.55
400.011	1.74
400.376	1.48
400.74	1.44
401.105	1.54
401.47	1.67
401.834	1.56
402.199	1.52
402.563	1.44
402.927	1.54
403.292	1.63
403.656	1.48
404.02	1.7
404.384	1.71
404.749	1.58
405.113	1.48
405.477	1.62
405.841	1.5
406.205	1.45
406.569	1.54
406.933	1.57
407.296	1.55
407.66	1.49
408.024	1.62
408.388	1.54
408.752	1.56
409.115	1.63
409.479	1.65
409.842	1.55
410.206	1.53
410.569	1.52
410.933	1.39
411.296	1.35
411.66	1.78
412.023	1.34
412.386	1.56
412.749	1.37
413.113	1.53
413.476	1.41
413.839	1.46
414.202	1.4
414.565	1.38
414.928	1.42
415.291	1.29
415.654	1.41
416.017	1.51
416.38	1.43
416.742	1.3
417.105	1.36
417.468	1.41
417.83	1.62
418.193	1.65
418.556	1.3
418.918	1.35
419.281	1.52
419.643	1.42
420.005	1.46
420.368	1.47
420.73	1.4
421.092	1.48
421.455	1.52
421.817	1.4
422.179	1.43
422.541	1.48
422.903	1.6
423.265	1.46
423.627	1.5
423.989	1.48
424.351	1.44
424.713	1.43
425.075	1.5
425.436	1.42
425.798	1.36
426.16	1.45
426.521	1.37
426.883	1.36
427.245	1.54
427.606	1.4
427.967	1.3
428.329	1.45
428.69	1.43
429.052	1.36
429.413	1.46
429.774	1.44
430.135	1.44
430.497	1.45
430.858	1.45
431.219	1.37
431.58	1.42
431.941	1.39
432.302	1.35
432.663	1.38
433.024	1.55
433.384	1.4
433.745	1.31
434.106	1.47
434.467	1.37
434.827	1.36
435.188	1.39
435.548	1.42
435.909	1.36
436.269	1.45
436.63	1.37
436.99	1.34
437.351	1.2
437.711	1.3
438.071	1.29
438.431	1.33
438.792	1.32
439.152	1.32
439.512	1.3
439.872	1.27
440.232	1.28
440.592	1.28
440.952	1.26
441.312	1.22
441.671	1.25
442.031	1.3
442.391	1.23
442.751	1.26
443.11	1.25
443.47	1.22
443.83	1.23
444.189	1.23
444.549	1.26
444.908	1.2
445.267	1.23
445.627	1.24
445.986	1.17
446.345	1.16
446.705	1.22
447.064	1.17
447.423	1.14
447.782	1.19
448.141	1.12
448.5	1.12
448.859	1.14
449.218	1.12
449.577	1.13
449.936	1.15
450.295	1.12
450.653	1.1
451.012	1.1
451.371	1.12
451.729	1.11
452.088	1.1
452.447	1.07
452.805	1.08
453.163	1.07
453.522	1.04
453.88	1.05
454.239	1.02
454.597	1.01
454.955	1.01
455.313	0.99
455.671	1
456.029	1.01
456.388	0.97
456.746	0.96
457.104	0.96
457.461	0.93
457.819	0.93
458.177	0.9
458.535	0.93
458.893	0.89
459.25	0.89
459.608	0.88
459.966	0.86
460.323	0.85
460.681	0.84
461.038	0.84
461.396	0.82
461.753	0.82
462.111	0.81
462.468	0.79
462.825	0.78
463.182	0.77
463.54	0.76
463.897	0.77
464.254	0.75
464.611	0.74
464.968	0.72
465.325	0.72
465.682	0.71
466.039	0.7
466.395	0.68
466.752	0.68
467.109	0.66
467.466	0.67
467.822	0.65
468.179	0.64
468.535	0.63
468.892	0.63
469.248	0.61
469.605	0.59
469.961	0.6
470.318	0.6
470.674	0.58
471.03	0.58
471.386	0.58
471.743	0.55
472.099	0.54
472.455	0.53
472.811	0.52
473.167	0.52
473.523	0.51
473.879	0.5
474.235	0.5
474.59	0.49
474.946	0.48
475.302	0.48
475.657	0.47
476.013	0.47
476.369	0.45
476.724	0.46
477.08	0.45
477.435	0.44
477.791	0.44
478.146	0.43
478.501	0.42
478.857	0.42
479.212	0.42
479.567	0.4
479.922	0.39
480.277	0.39
480.632	0.38
480.987	0.37
481.342	0.37
481.697	0.36
482.052	0.36
482.407	0.35
482.762	0.35
483.116	0.34
483.471	0.33
483.826	0.32
484.18	0.32
484.535	0.31
484.89	0.31
485.244	0.3
485.598	0.31
485.953	0.3
486.307	0.29
486.661	0.3
487.016	0.29
487.37	0.29
487.724	0.28
488.078	0.27
488.432	0.28
488.786	0.27
489.14	0.27
489.494	0.25
489.848	0.25
490.202	0.25
490.556	0.25
490.91	0.25
491.263	0.24
491.617	0.25
491.971	0.24
492.324	0.24
492.678	0.24
493.031	0.23
493.385	0.22
493.738	0.22
494.091	0.22
494.445	0.22
494.798	0.21
495.151	0.21
495.504	0.21
495.857	0.22
496.21	0.21
496.564	0.2
496.916	0.21
497.269	0.2
497.622	0.2
497.975	0.21
498.328	0.2
498.681	0.2
499.033	0.19
499.386	0.19
499.739	0.19
500.091	0.19
500.444	0.19
500.796	0.19
501.149	0.19
501.501	0.18
501.854	0.19
502.206	0.18
502.558	0.18
502.91	0.19
503.263	0.18
503.615	0.18
503.967	0.17
504.319	0.17
504.671	0.17
505.023	0.16
505.375	0.17
505.726	0.16
506.078	0.16
506.43	0.16
506.782	0.16
507.133	0.17
507.485	0.17
507.837	0.17
508.188	0.16
508.54	0.17
508.891	0.17
509.243	0.16
509.594	0.15
509.945	0.16
510.296	0.16
510.648	0.16
510.999	0.15
511.35	0.15
511.701	0.15
512.052	0.16
512.403	0.14
512.754	0.15
513.105	0.15
513.456	0.14
513.807	0.14
514.157	0.15
514.508	0.15
514.859	0.14
515.209	0.14
515.56	0.15
515.91	0.13
516.261	0.15
516.611	0.14
516.962	0.15
517.312	0.15
517.662	0.14
518.013	0.14
518.363	0.15
518.713	0.14
519.063	0.15
519.413	0.15
519.763	0.14
520.113	0.14
520.463	0.15
520.813	0.14
521.163	0.15
521.512	0.14
521.862	0.14
522.212	0.15
522.562	0.14
522.911	0.14
523.261	0.14
523.61	0.14
523.96	0.14
524.309	0.15
524.658	0.14
525.008	0.14
525.357	0.14
525.706	0.14
526.056	0.14
526.405	0.14
526.754	0.14
527.103	0.14
527.452	0.14
527.801	0.15
528.15	0.15
528.499	0.14
528.847	0.15
529.196	0.15
529.545	0.15
529.893	0.15
530.242	0.14
530.591	0.15
530.939	0.15
531.288	0.15
531.636	0.14
531.985	0.15
532.333	0.14
532.681	0.14
533.029	0.13
533.378	0.15
533.726	0.14
534.074	0.15
534.422	0.13
534.77	0.15
535.118	0.14
535.466	0.14
535.814	0.14
536.162	0.14
536.509	0.15
536.857	0.14
537.205	0.15
537.552	0.14
537.9	0.15
538.248	0.14
538.595	0.15
538.943	0.14
539.29	0.14
539.637	0.13
539.985	0.13
540.332	0.13
540.679	0.13
541.026	0.14
541.373	0.14
541.721	0.12
542.068	0.13
542.415	0.14
542.762	0.13
543.108	0.13
543.455	0.13
543.802	0.13
544.149	0.14
544.496	0.14
544.842	0.14
545.189	0.13
545.535	0.13
545.882	0.14
546.228	0.13
546.575	0.13
546.921	0.13
547.267	0.13
547.614	0.14
547.96	0.14
548.306	0.13
548.652	0.13
548.998	0.14
549.344	0.14
549.69	0.14
550.036	0.13
550.382	0.13
550.728	0.14
551.074	0.14
551.42	0.14
551.765	0.13
552.111	0.14
552.457	0.15
552.802	0.14
553.148	0.14
553.493	0.14
553.839	0.14
554.184	0.15
554.529	0.14
554.875	0.15
555.22	0.14
555.565	0.14
555.91	0.14
556.255	0.15
556.6	0.15
556.945	0.13
557.29	0.14
557.635	0.14
557.98	0.15
558.325	0.14
558.67	0.14
559.014	0.13
559.359	0.14
559.704	0.14
560.048	0.13
560.393	0.14
560.737	0.13
561.082	0.13
561.426	0.12
561.77	0.14
562.115	0.12
562.459	0.13
562.803	0.13
563.147	0.13
563.491	0.13
563.835	0.13
564.179	0.14
564.523	0.13
564.867	0.13
565.211	0.14
565.555	0.14
565.899	0.13
566.242	0.14
566.586	0.13
566.93	0.14
567.273	0.14
567.617	0.14
567.96	0.14
568.304	0.14
568.647	0.14
568.99	0.14
569.334	0.15
569.677	0.14
570.02	0.14
570.363	0.15
570.706	0.15
571.049	0.14
571.392	0.15
571.735	0.14
572.078	0.14
572.421	0.15
572.764	0.14
573.106	0.14
573.449	0.13
573.792	0.14
574.134	0.14
574.477	0.14
574.819	0.15
575.162	0.13
575.504	0.13
575.847	0.14
576.189	0.14
576.531	0.14
576.873	0.14
577.215	0.14
577.558	0.14
577.9	0.13
578.242	0.14
578.584	0.13
578.926	0.13
579.267	0.13
579.609	0.13
579.951	0.14
580.293	0.13
580.634	0.13
580.976	0.13
581.318	0.13
581.659	0.13
582.001	0.13
582.342	0.14
582.683	0.14
583.025	0.13
583.366	0.13
583.707	0.14
584.049	0.14
584.39	0.13
584.731	0.13
585.072	0.13
585.413	0.14
585.754	0.14
586.095	0.13
586.435	0.13
586.776	0.13
587.117	0.13
587.458	0.13
587.798	0.13
588.139	0.13
588.48	0.13
588.82	0.13
589.161	0.13
589.501	0.12
589.841	0.13
590.182	0.13
590.522	0.12
590.862	0.13
591.202	0.12
591.542	0.13
591.882	0.12
592.222	0.12
592.562	0.13
592.902	0.13
593.242	0.12
593.582	0.13
593.922	0.13
594.261	0.13
594.601	0.12
594.941	0.13
595.28	0.13
595.62	0.13
595.959	0.13
596.299	0.12
596.638	0.12
596.977	0.13
597.317	0.13
597.656	0.12
597.995	0.13
598.334	0.14
598.673	0.12
599.012	0.12
599.351	0.13
599.69	0.13
600.029	0.13
600.368	0.13
600.707	0.14
601.046	0.13
601.384	0.13
601.723	0.13
602.061	0.12
602.4	0.13
602.738	0.13
603.077	0.13
603.415	0.12
603.754	0.13
604.092	0.13
604.43	0.13
604.768	0.14
605.107	0.13
605.445	0.12
605.783	0.13
606.121	0.12
606.459	0.13
606.796	0.13
607.134	0.13
607.472	0.12
607.81	0.14
608.148	0.13
608.485	0.13
608.823	0.13
609.16	0.12
609.498	0.13
609.835	0.13
610.173	0.13
610.51	0.13
610.847	0.13
611.185	0.13
611.522	0.14
611.859	0.13
612.196	0.14
612.533	0.14
612.87	0.14
613.207	0.13
613.544	0.14
613.881	0.14
614.217	0.15
614.554	0.14
614.891	0.14
615.228	0.14
615.564	0.14
615.901	0.14
616.237	0.13
616.574	0.14
616.91	0.14
617.246	0.13
617.583	0.13
617.919	0.13
618.255	0.14
618.591	0.13
618.927	0.13
619.263	0.13
619.599	0.13
619.935	0.13
620.271	0.13
620.607	0.14
620.943	0.13
621.279	0.13
621.614	0.13
621.95	0.13
622.286	0.13
622.621	0.12
622.957	0.13
623.292	0.13
623.627	0.13
623.963	0.12
624.298	0.13
624.633	0.13
624.968	0.12
625.304	0.12
625.639	0.12
625.974	0.12
626.309	0.12
626.644	0.13
626.979	0.13
627.313	0.12
627.648	0.12
627.983	0.13
628.318	0.12
628.652	0.12
628.987	0.12
629.321	0.12
629.656	0.12
629.99	0.12
630.325	0.13
630.659	0.13
630.993	0.12
631.327	0.13
631.662	0.11
631.996	0.12
632.33	0.12
632.664	0.12
632.998	0.11
633.332	0.11
633.666	0.12
633.999	0.12
634.333	0.11
634.667	0.11
635.001	0.12
635.334	0.11
635.668	0.11
636.001	0.11
636.335	0.11
636.668	0.11
637.001	0.11
637.335	0.11
637.668	0.11
638.001	0.1
638.334	0.11
638.668	0.11
639.001	0.11
639.334	0.11
639.667	0.11
639.999	0.11
640.332	0.11
640.665	0.11
640.998	0.12
641.331	0.12
641.663	0.11
641.996	0.11
642.328	0.11
642.661	0.12
642.993	0.11
643.326	0.12
643.658	0.11
643.99	0.11
644.323	0.11
644.655	0.11
644.987	0.12
645.319	0.11
645.651	0.11
645.983	0.11
646.315	0.11
646.647	0.12
646.979	0.12
647.31	0.11
647.642	0.11
647.974	0.11
648.305	0.12
648.637	0.12
648.968	0.12
649.3	0.12
649.631	0.12
649.963	0.12
650.294	0.11
650.625	0.11
650.957	0.12
651.288	0.11
651.619	0.12
651.95	0.11
652.281	0.12
652.612	0.11
652.943	0.11
653.274	0.12
653.604	0.11
653.935	0.11
654.266	0.11
654.596	0.11
654.927	0.11
655.258	0.11
655.588	0.11
655.918	0.11
656.249	0.1
656.579	0.1
656.909	0.11
657.24	0.1
657.57	0.12
657.9	0.11
658.23	0.11
658.56	0.11
658.89	0.11
659.22	0.11
659.55	0.11
659.88	0.12
660.209	0.11
660.539	0.12
660.869	0.11
661.198	0.11
661.528	0.11
661.857	0.11
662.187	0.11
662.516	0.11
662.846	0.11
663.175	0.1
663.504	0.11
663.833	0.11
664.163	0.11
664.492	0.11
664.821	0.11
665.15	0.1
665.479	0.11
665.807	0.1
666.136	0.1
666.465	0.11
666.794	0.1
667.122	0.11
667.451	0.1
667.78	0.1
668.108	0.1
668.437	0.1
668.765	0.1
669.093	0.1
669.422	0.1
669.75	0.1
670.078	0.1
670.406	0.1
670.734	0.1
671.062	0.1
671.39	0.1
671.718	0.1
672.046	0.1
672.374	0.09
672.702	0.1
673.029	0.09
673.357	0.1
673.685	0.1
674.012	0.1
674.34	0.1
674.667	0.1
674.995	0.1
675.322	0.1
675.649	0.1
675.977	0.1
676.304	0.1
676.631	0.1
676.958	0.09
677.285	0.09
677.612	0.09
677.939	0.09
678.266	0.09
678.593	0.09
678.92	0.09
679.246	0.08
679.573	0.08
679.9	0.08
680.226	0.09
680.553	0.08
680.879	0.08
681.206	0.09
681.532	0.08
681.858	0.09
682.184	0.08
682.511	0.08
682.837	0.08
683.163	0.09
683.489	0.09
683.815	0.08
684.141	0.09
684.467	0.09
684.793	0.08
685.118	0.08
685.444	0.09
685.77	0.08
686.095	0.09
686.421	0.09
686.746	0.09
687.072	0.09
687.397	0.09
687.723	0.09
688.048	0.09
688.373	0.08
688.698	0.08
689.023	0.08
689.349	0.08
689.674	0.08
689.999	0.08
690.323	0.07
690.648	0.08
690.973	0.08
691.298	0.07
691.623	0.07
691.947	0.08
692.272	0.07
692.596	0.07
692.921	0.07
693.245	0.07
693.57	0.07
693.894	0.08
694.218	0.08
694.543	0.07
694.867	0.07
695.191	0.07
695.515	0.07
695.839	0.07
696.163	0.07
696.487	0.07
696.811	0.08
697.135	0.08
697.458	0.08
697.782	0.07
698.106	0.08
698.429	0.08
698.753	0.08
699.076	0.08
699.4	0.07
699.723	0.08
700.046	0.07
700.37	0.08
700.693	0.08
701.016	0.08
701.339	0.08
701.662	0.09
701.985	0.09
702.308	0.07
702.631	0.08
702.954	0.08
703.277	0.08
703.599	0.08
703.922	0.08
704.245	0.07
704.567	0.07
704.89	0.08
705.212	0.08
705.535	0.07
705.857	0.07
706.179	0.07
706.502	0.06
706.824	0.06
707.146	0.06
707.468	0.07
707.79	0.07
708.112	0.06
708.434	0.06
708.756	0.07
709.078	0.07
709.399	0.06
709.721	0.07
710.043	0.07
710.364	0.06
710.686	0.07
711.007	0.06
711.329	0.07
711.65	0.06
711.972	0.06
712.293	0.06
712.614	0.07
712.935	0.07
713.256	0.06
713.577	0.06
713.898	0.06
714.219	0.06
714.54	0.07
714.861	0.05
715.182	0.06
715.503	0.07
715.823	0.07
716.144	0.06
716.464	0.06
716.785	0.06
717.105	0.06
717.426	0.07
717.746	0.06
718.066	0.06
718.387	0.06
718.707	0.05
719.027	0.06
719.347	0.05
719.667	0.05
719.987	0.05
720.307	0.05
720.627	0.05
720.947	0.05
721.266	0.05
721.586	0.05
721.906	0.05
722.225	0.05
722.545	0.05
722.864	0.05
723.184	0.05
723.503	0.05
723.823	0.06
