Data from 12-12-AQDScycling_Absorbance__880__00880.txt Node

Date: Tue Dec 12 14:36:44 EST 2023
User: kyuminlee
Spectrometer: FLMS00943
Trigger mode: 0
Integration Time (sec): 1.000000E-1
Scans to average: 1
Electric dark correction enabled: true
Nonlinearity correction enabled: false
Boxcar width: 0
XAxis mode: Wavelengths
Number of Pixels in Spectrum: 2048
>>>>>Begin Spectral Data<<<<<
179.651	0.07
180.037	0.07
180.424	0.07
180.81	0.32
181.197	0.24
181.583	-0
181.97	-0
182.356	-0
182.743	-0
183.129	0.01
183.515	0.27
183.901	-2.68
184.288	0.41
184.674	-0
185.06	-0
185.446	-0
185.832	-0.12
186.218	0.43
186.604	-0.26
186.99	-0
187.376	-0
187.762	-0
188.148	0.23
188.534	-0.12
188.92	-0.03
189.305	0.07
189.691	0.17
190.077	0.16
190.463	0.14
190.848	0.18
191.234	-0.01
191.619	0.14
192.005	0.2
192.391	0.17
192.776	0.18
193.161	0.16
193.547	0.15
193.932	-0.01
194.318	0.08
194.703	0.13
195.088	0.09
195.473	0.19
195.859	0.11
196.244	0.23
196.629	0.18
197.014	0.06
197.399	0.13
197.784	0.21
198.169	0.05
198.554	0.22
198.939	0.12
199.324	0.04
199.709	0.04
200.094	0.02
200.478	0.13
200.863	0.18
201.248	0.22
201.633	0.2
202.017	0.18
202.402	0.22
202.787	0.13
203.171	0.05
203.556	0.35
203.94	0.15
204.325	0.25
204.709	0.19
205.093	0.09
205.478	0.08
205.862	0.14
206.246	0.22
206.631	0.28
207.015	0.12
207.399	0.22
207.783	0.08
208.167	0.16
208.551	0.22
208.935	0.18
209.319	0.21
209.703	0.16
210.087	0.29
210.471	0.17
210.855	0.15
211.239	0.21
211.623	0.29
212.007	0.46
212.39	0.16
212.774	0.18
213.158	0.08
213.541	0.18
213.925	0.25
214.309	0.21
214.692	0.35
215.076	0.25
215.459	0.24
215.842	0.08
216.226	0.34
216.609	0.35
216.993	0.13
217.376	0.45
217.759	0.08
218.142	0.33
218.525	0.68
218.909	0.33
219.292	0.31
219.675	0.5
220.058	0.48
220.441	0.6
220.824	0.51
221.207	0.64
221.59	0.53
221.973	0.49
222.355	0.68
222.738	0.74
223.121	0.63
223.504	0.64
223.886	0.71
224.269	0.78
224.652	0.68
225.034	0.74
225.417	0.69
225.799	0.73
226.182	0.82
226.564	0.89
226.947	0.86
227.329	0.88
227.711	1.13
228.094	0.84
228.476	0.98
228.858	0.84
229.24	0.87
229.623	1.06
230.005	0.8
230.387	0.91
230.769	0.86
231.151	0.97
231.533	0.97
231.915	0.99
232.297	0.94
232.679	1
233.061	0.95
233.442	1.04
233.824	0.98
234.206	0.95
234.588	1.17
234.969	1.09
235.351	0.94
235.733	0.99
236.114	1.13
236.496	1.05
236.877	1.06
237.259	1.21
237.64	1.19
238.022	0.91
238.403	1.04
238.784	0.94
239.165	0.97
239.547	1.09
239.928	1.05
240.309	0.98
240.69	1.09
241.071	1.1
241.452	1.12
241.834	1.07
242.215	1.11
242.595	0.98
242.976	1.02
243.357	1.16
243.738	1.14
244.119	1.42
244.5	1.04
244.881	1.22
245.261	1.15
245.642	1.14
246.023	1.23
246.403	1.08
246.784	1.27
247.164	1.3
247.545	1.3
247.925	1.15
248.306	1.23
248.686	1.44
249.067	1.38
249.447	1.35
249.827	1.38
250.207	1.38
250.588	1.42
250.968	1.41
251.348	1.36
251.728	1.34
252.108	1.34
252.488	1.35
252.868	1.36
253.248	1.24
253.628	1.36
254.008	1.47
254.388	1.36
254.768	1.24
255.147	1.34
255.527	1.59
255.907	1.24
256.287	1.29
256.666	1.44
257.046	1.56
257.425	1.5
257.805	1.36
258.184	1.25
258.564	1.42
258.943	1.39
259.323	1.4
259.702	1.5
260.081	1.41
260.461	1.47
260.84	1.47
261.219	1.63
261.598	1.6
261.977	1.45
262.356	1.61
262.736	1.54
263.115	1.46
263.494	1.36
263.873	1.28
264.251	1.44
264.63	1.52
265.009	1.33
265.388	1.52
265.767	1.4
266.145	1.45
266.524	1.49
266.903	1.46
267.281	1.31
267.66	1.51
268.039	1.49
268.417	1.49
268.796	1.45
269.174	1.43
269.552	1.37
269.931	1.43
270.309	1.33
270.687	1.51
271.066	1.62
271.444	1.54
271.822	1.48
272.2	1.44
272.578	1.39
272.956	1.46
273.334	1.37
273.712	1.44
274.09	1.4
274.468	1.35
274.846	1.35
275.224	1.33
275.602	1.67
275.98	1.73
276.357	1.62
276.735	1.54
277.113	1.48
277.49	1.3
277.868	1.28
278.246	1.42
278.623	1.42
279.001	1.33
279.378	1.39
279.756	1.6
280.133	1.5
280.51	1.35
280.888	1.42
281.265	1.51
281.642	1.53
282.019	1.5
282.396	1.5
282.773	1.37
283.151	1.44
283.528	1.57
283.905	1.34
284.282	1.45
284.659	1.57
285.035	1.31
285.412	1.32
285.789	1.51
286.166	1.43
286.543	1.49
286.919	1.55
287.296	1.37
287.673	1.61
288.049	1.53
288.426	1.51
288.802	1.55
289.179	1.51
289.555	1.53
289.932	1.41
290.308	1.36
290.684	1.41
291.061	1.32
291.437	1.54
291.813	1.34
292.189	1.3
292.565	1.34
292.942	1.23
293.318	1.36
293.694	1.42
294.07	1.49
294.446	1.36
294.822	1.61
295.197	1.39
295.573	1.49
295.949	1.44
296.325	1.62
296.701	1.46
297.076	1.49
297.452	1.65
297.828	1.3
298.203	1.6
298.579	1.44
298.954	1.37
299.33	1.35
299.705	1.43
300.081	1.53
300.456	1.51
300.831	1.31
301.206	1.38
301.582	1.47
301.957	1.31
302.332	1.44
302.707	1.38
303.082	1.33
303.457	1.29
303.832	1.31
304.207	1.38
304.582	1.31
304.957	1.37
305.332	1.27
305.707	1.27
306.082	1.3
306.456	1.32
306.831	1.22
307.206	1.23
307.58	1.29
307.955	1.17
308.33	1.22
308.704	1.19
309.079	1.2
309.453	1.26
309.828	1.2
310.202	1.15
310.576	1.18
310.951	1.19
311.325	1.2
311.699	1.11
312.073	1.16
312.447	1.14
312.821	1.07
313.196	1.17
313.57	1.11
313.944	1.07
314.317	1.06
314.691	1.14
315.065	1.1
315.439	1.13
315.813	1.09
316.187	1.16
316.56	1.14
316.934	1.11
317.308	1.13
317.681	1.16
318.055	1.12
318.428	1.09
318.802	1.13
319.175	1.06
319.549	1.06
319.922	1.14
320.295	1.12
320.669	1.17
321.042	1.1
321.415	1.16
321.788	1.1
322.162	1.14
322.535	1.14
322.908	1.1
323.281	1.1
323.654	1.12
324.027	1.14
324.4	1.14
324.773	1.17
325.145	1.17
325.518	1.1
325.891	1.2
326.264	1.22
326.636	1.07
327.009	1.15
327.382	1.1
327.754	1.17
328.127	1.09
328.499	1.14
328.872	1.12
329.244	1.14
329.616	1.12
329.989	1.1
330.361	1.14
330.733	1.14
331.106	1.09
331.478	1.2
331.85	1.1
332.222	1.15
332.594	1.16
332.966	1.16
333.338	1.27
333.71	1.2
334.082	1.21
334.454	1.21
334.826	1.18
335.197	1.22
335.569	1.19
335.941	1.16
336.312	1.24
336.684	1.21
337.056	1.17
337.427	1.22
337.799	1.24
338.17	1.19
338.542	1.2
338.913	1.26
339.284	1.28
339.656	1.3
340.027	1.26
340.398	1.23
340.769	1.27
341.141	1.32
341.512	1.27
341.883	1.27
342.254	1.22
342.625	1.3
342.996	1.22
343.367	1.31
343.738	1.32
344.108	1.18
344.479	1.29
344.85	1.29
345.221	1.2
345.591	1.19
345.962	1.34
346.333	1.31
346.703	1.15
347.074	1.18
347.444	1.23
347.815	1.32
348.185	1.26
348.556	1.26
348.926	1.18
349.296	1.35
349.666	1.27
350.037	1.22
350.407	1.18
350.777	1.25
351.147	1.28
351.517	1.41
351.887	1.23
352.257	1.44
352.627	1.34
352.997	1.22
353.367	1.29
353.737	1.38
354.106	1.34
354.476	1.33
354.846	1.33
355.216	1.39
355.585	1.38
355.955	1.59
356.324	1.4
356.694	1.45
357.063	1.5
357.433	1.33
357.802	1.34
358.171	1.52
358.541	1.4
358.91	1.41
359.279	1.47
359.648	1.41
360.017	1.39
360.387	1.47
360.756	1.39
361.125	1.45
361.494	1.49
361.863	1.53
362.231	1.52
362.6	1.46
362.969	1.5
363.338	1.45
363.707	1.57
364.075	1.6
364.444	1.43
364.813	1.56
365.181	1.54
365.55	1.48
365.918	1.6
366.287	1.51
366.655	1.58
367.024	1.65
367.392	1.59
367.76	1.51
368.128	1.49
368.497	1.61
368.865	1.51
369.233	1.48
369.601	1.53
369.969	1.55
370.337	1.57
370.705	1.51
371.073	1.63
371.441	1.47
371.809	1.42
372.177	1.5
372.544	1.44
372.912	1.48
373.28	1.56
373.647	1.62
374.015	1.63
374.383	1.68
374.75	1.66
375.118	1.68
375.485	1.57
375.853	1.57
376.22	1.59
376.587	1.54
376.955	1.61
377.322	1.51
377.689	1.55
378.056	1.46
378.423	1.49
378.79	1.61
379.157	1.51
379.524	1.65
379.891	1.49
380.258	1.65
380.625	1.47
380.992	1.5
381.359	1.6
381.726	1.68
382.092	1.42
382.459	1.49
382.826	1.7
383.192	1.6
383.559	1.61
383.925	1.61
384.292	1.51
384.658	1.65
385.025	1.61
385.391	1.64
385.757	1.56
386.123	1.54
386.49	1.53
386.856	1.63
387.222	1.62
387.588	1.62
387.954	1.8
388.32	1.81
388.686	1.56
389.052	1.56
389.418	1.54
389.784	1.56
390.15	1.73
390.515	1.44
390.881	1.7
391.247	1.56
391.613	1.62
391.978	1.47
392.344	1.66
392.709	1.57
393.075	1.74
393.44	1.71
393.806	1.6
394.171	1.49
394.536	1.43
394.902	1.66
395.267	1.44
395.632	1.47
395.997	1.54
396.362	1.48
396.727	1.47
397.092	1.59
397.457	1.54
397.822	1.57
398.187	1.54
398.552	1.65
398.917	1.66
399.282	1.52
399.646	1.41
400.011	1.69
400.376	1.47
400.74	1.43
401.105	1.39
401.47	1.67
401.834	1.51
402.199	1.47
402.563	1.5
402.927	1.49
403.292	1.71
403.656	1.6
404.02	1.68
404.384	1.62
404.749	1.46
405.113	1.84
405.477	1.64
405.841	1.52
406.205	1.75
406.569	1.48
406.933	1.54
407.296	1.49
407.66	1.54
408.024	1.5
408.388	1.55
408.752	1.58
409.115	1.57
409.479	1.58
409.842	1.56
410.206	1.49
410.569	1.51
410.933	1.51
411.296	1.42
411.66	1.63
412.023	1.35
412.386	1.58
412.749	1.48
413.113	1.6
413.476	1.49
413.839	1.46
414.202	1.5
414.565	1.32
414.928	1.44
415.291	1.41
415.654	1.51
416.017	1.52
416.38	1.4
416.742	1.37
417.105	1.37
417.468	1.39
417.83	1.45
418.193	1.57
418.556	1.36
418.918	1.32
419.281	1.72
419.643	1.5
420.005	1.58
420.368	1.53
420.73	1.44
421.092	1.56
421.455	1.48
421.817	1.46
422.179	1.46
422.541	1.45
422.903	1.48
423.265	1.45
423.627	1.41
423.989	1.45
424.351	1.36
424.713	1.5
425.075	1.53
425.436	1.45
425.798	1.45
426.16	1.5
426.521	1.45
426.883	1.51
427.245	1.44
427.606	1.44
427.967	1.33
428.329	1.41
428.69	1.53
429.052	1.35
429.413	1.48
429.774	1.58
430.135	1.42
430.497	1.51
430.858	1.43
431.219	1.42
431.58	1.42
431.941	1.47
432.302	1.39
432.663	1.44
433.024	1.47
433.384	1.47
433.745	1.37
434.106	1.43
434.467	1.4
434.827	1.49
435.188	1.43
435.548	1.46
435.909	1.35
436.269	1.49
436.63	1.36
436.99	1.35
437.351	1.35
437.711	1.52
438.071	1.28
438.431	1.42
438.792	1.36
439.152	1.38
439.512	1.32
439.872	1.33
440.232	1.37
440.592	1.33
440.952	1.35
441.312	1.25
441.671	1.39
442.031	1.35
442.391	1.31
442.751	1.31
443.11	1.3
443.47	1.24
443.83	1.24
444.189	1.34
444.549	1.29
444.908	1.22
445.267	1.23
445.627	1.27
445.986	1.27
446.345	1.21
446.705	1.23
447.064	1.25
447.423	1.19
447.782	1.29
448.141	1.2
448.5	1.16
448.859	1.17
449.218	1.17
449.577	1.16
449.936	1.2
450.295	1.17
450.653	1.17
451.012	1.16
451.371	1.14
451.729	1.15
452.088	1.12
452.447	1.15
452.805	1.13
453.163	1.13
453.522	1.12
453.88	1.09
454.239	1.1
454.597	1.09
454.955	1.06
455.313	1.07
455.671	1.04
456.029	1.05
456.388	1.01
456.746	1.02
457.104	0.98
457.461	0.98
457.819	0.98
458.177	0.96
458.535	0.95
458.893	0.94
459.25	0.93
459.608	0.92
459.966	0.91
460.323	0.9
460.681	0.88
461.038	0.87
461.396	0.86
461.753	0.84
462.111	0.86
462.468	0.82
462.825	0.79
463.182	0.82
463.54	0.8
463.897	0.79
464.254	0.79
464.611	0.77
464.968	0.76
465.325	0.76
465.682	0.72
466.039	0.74
466.395	0.71
466.752	0.71
467.109	0.7
467.466	0.69
467.822	0.68
468.179	0.67
468.535	0.66
468.892	0.65
469.248	0.64
469.605	0.63
469.961	0.62
470.318	0.62
470.674	0.6
471.03	0.6
471.386	0.59
471.743	0.58
472.099	0.56
472.455	0.56
472.811	0.55
473.167	0.55
473.523	0.52
473.879	0.53
474.235	0.52
474.59	0.5
474.946	0.5
475.302	0.49
475.657	0.49
476.013	0.48
476.369	0.48
476.724	0.47
477.08	0.46
477.435	0.45
477.791	0.44
478.146	0.44
478.501	0.43
478.857	0.42
479.212	0.41
479.567	0.4
479.922	0.39
480.277	0.4
480.632	0.38
480.987	0.38
481.342	0.38
481.697	0.36
482.052	0.36
482.407	0.36
482.762	0.34
483.116	0.34
483.471	0.34
483.826	0.32
484.18	0.32
484.535	0.32
484.89	0.31
485.244	0.31
485.598	0.3
485.953	0.3
486.307	0.3
486.661	0.3
487.016	0.27
487.37	0.28
487.724	0.27
488.078	0.27
488.432	0.27
488.786	0.27
489.14	0.26
489.494	0.25
489.848	0.25
490.202	0.25
490.556	0.25
490.91	0.25
491.263	0.23
491.617	0.23
491.971	0.23
492.324	0.23
492.678	0.23
493.031	0.23
493.385	0.22
493.738	0.22
494.091	0.22
494.445	0.22
494.798	0.22
495.151	0.21
495.504	0.21
495.857	0.2
496.21	0.21
496.564	0.2
496.916	0.21
497.269	0.19
497.622	0.2
497.975	0.2
498.328	0.19
498.681	0.18
499.033	0.18
499.386	0.18
499.739	0.18
500.091	0.18
500.444	0.18
500.796	0.18
501.149	0.17
501.501	0.18
501.854	0.17
502.206	0.17
502.558	0.17
502.91	0.18
503.263	0.16
503.615	0.17
503.967	0.16
504.319	0.16
504.671	0.16
505.023	0.15
505.375	0.16
505.726	0.16
506.078	0.16
506.43	0.16
506.782	0.15
507.133	0.16
507.485	0.16
507.837	0.17
508.188	0.16
508.54	0.16
508.891	0.16
509.243	0.15
509.594	0.15
509.945	0.15
510.296	0.15
510.648	0.15
510.999	0.14
511.35	0.15
511.701	0.15
512.052	0.15
512.403	0.15
512.754	0.15
513.105	0.14
513.456	0.14
513.807	0.14
514.157	0.14
514.508	0.14
514.859	0.14
515.209	0.14
515.56	0.15
515.91	0.14
516.261	0.15
516.611	0.14
516.962	0.15
517.312	0.15
517.662	0.14
518.013	0.14
518.363	0.14
518.713	0.14
519.063	0.15
519.413	0.14
519.763	0.14
520.113	0.15
520.463	0.15
520.813	0.15
521.163	0.15
521.512	0.14
521.862	0.14
522.212	0.14
522.562	0.15
522.911	0.14
523.261	0.14
523.61	0.14
523.96	0.15
524.309	0.15
524.658	0.14
525.008	0.14
525.357	0.14
525.706	0.15
526.056	0.14
526.405	0.14
526.754	0.14
527.103	0.14
527.452	0.15
527.801	0.14
528.15	0.15
528.499	0.14
528.847	0.15
529.196	0.16
529.545	0.15
529.893	0.16
530.242	0.15
530.591	0.15
530.939	0.15
531.288	0.15
531.636	0.15
531.985	0.15
532.333	0.15
532.681	0.15
533.029	0.14
533.378	0.15
533.726	0.15
534.074	0.15
534.422	0.14
534.77	0.15
535.118	0.15
535.466	0.14
535.814	0.14
536.162	0.15
536.509	0.15
536.857	0.15
537.205	0.16
537.552	0.15
537.9	0.15
538.248	0.15
538.595	0.15
538.943	0.15
539.29	0.15
539.637	0.15
539.985	0.15
540.332	0.15
540.679	0.15
541.026	0.14
541.373	0.16
541.721	0.14
542.068	0.15
542.415	0.15
542.762	0.14
543.108	0.14
543.455	0.14
543.802	0.15
544.149	0.15
544.496	0.15
544.842	0.15
545.189	0.13
545.535	0.15
545.882	0.14
546.228	0.14
546.575	0.14
546.921	0.14
547.267	0.13
547.614	0.13
547.96	0.14
548.306	0.13
548.652	0.14
548.998	0.15
549.344	0.14
549.69	0.15
550.036	0.14
550.382	0.14
550.728	0.14
551.074	0.14
551.42	0.15
551.765	0.15
552.111	0.14
552.457	0.15
552.802	0.14
553.148	0.15
553.493	0.15
553.839	0.15
554.184	0.15
554.529	0.14
554.875	0.15
555.22	0.15
555.565	0.15
555.91	0.15
556.255	0.15
556.6	0.16
556.945	0.14
557.29	0.15
557.635	0.16
557.98	0.14
558.325	0.14
558.67	0.15
559.014	0.14
559.359	0.16
559.704	0.15
560.048	0.14
560.393	0.15
560.737	0.14
561.082	0.14
561.426	0.14
561.77	0.14
562.115	0.14
562.459	0.14
562.803	0.14
563.147	0.15
563.491	0.15
563.835	0.15
564.179	0.15
564.523	0.13
564.867	0.14
565.211	0.15
565.555	0.14
565.899	0.14
566.242	0.15
566.586	0.14
566.93	0.15
567.273	0.15
567.617	0.15
567.96	0.15
568.304	0.16
568.647	0.15
568.99	0.15
569.334	0.16
569.677	0.15
570.02	0.15
570.363	0.15
570.706	0.15
571.049	0.15
571.392	0.16
571.735	0.15
572.078	0.15
572.421	0.15
572.764	0.16
573.106	0.15
573.449	0.15
573.792	0.15
574.134	0.15
574.477	0.15
574.819	0.15
575.162	0.15
575.504	0.15
575.847	0.14
576.189	0.15
576.531	0.15
576.873	0.14
577.215	0.15
577.558	0.15
577.9	0.14
578.242	0.15
578.584	0.15
578.926	0.15
579.267	0.14
579.609	0.15
579.951	0.14
580.293	0.15
580.634	0.15
580.976	0.15
581.318	0.14
581.659	0.14
582.001	0.14
582.342	0.14
582.683	0.16
583.025	0.14
583.366	0.14
583.707	0.14
584.049	0.14
584.39	0.15
584.731	0.14
585.072	0.14
585.413	0.15
585.754	0.15
586.095	0.15
586.435	0.16
586.776	0.15
587.117	0.15
587.458	0.14
587.798	0.15
588.139	0.14
588.48	0.15
588.82	0.14
589.161	0.14
589.501	0.14
589.841	0.14
590.182	0.14
590.522	0.14
590.862	0.15
591.202	0.14
591.542	0.14
591.882	0.14
592.222	0.14
592.562	0.14
592.902	0.15
593.242	0.14
593.582	0.15
593.922	0.14
594.261	0.14
594.601	0.14
594.941	0.14
595.28	0.14
595.62	0.14
595.959	0.14
596.299	0.14
596.638	0.14
596.977	0.14
597.317	0.15
597.656	0.14
597.995	0.15
598.334	0.15
598.673	0.14
599.012	0.14
599.351	0.15
599.69	0.15
600.029	0.15
600.368	0.15
600.707	0.15
601.046	0.15
601.384	0.16
601.723	0.15
602.061	0.15
602.4	0.15
602.738	0.15
603.077	0.15
603.415	0.14
603.754	0.14
604.092	0.14
604.43	0.15
604.768	0.15
605.107	0.14
605.445	0.14
605.783	0.13
606.121	0.14
606.459	0.14
606.796	0.15
607.134	0.14
607.472	0.14
607.81	0.14
608.148	0.14
608.485	0.15
608.823	0.14
609.16	0.14
609.498	0.14
609.835	0.14
610.173	0.14
610.51	0.15
610.847	0.15
611.185	0.14
611.522	0.14
611.859	0.14
612.196	0.14
612.533	0.14
612.87	0.15
613.207	0.14
613.544	0.14
613.881	0.15
614.217	0.15
614.554	0.15
614.891	0.14
615.228	0.15
615.564	0.15
615.901	0.15
616.237	0.15
616.574	0.15
616.91	0.16
617.246	0.16
617.583	0.15
617.919	0.16
618.255	0.15
618.591	0.14
618.927	0.15
619.263	0.15
619.599	0.15
619.935	0.14
620.271	0.15
620.607	0.15
620.943	0.15
621.279	0.15
621.614	0.15
621.95	0.15
622.286	0.14
622.621	0.14
622.957	0.14
623.292	0.14
623.627	0.14
623.963	0.14
624.298	0.14
624.633	0.14
624.968	0.14
625.304	0.14
625.639	0.13
625.974	0.14
626.309	0.13
626.644	0.13
626.979	0.15
627.313	0.14
627.648	0.14
627.983	0.14
628.318	0.13
628.652	0.13
628.987	0.14
629.321	0.14
629.656	0.13
629.99	0.13
630.325	0.13
630.659	0.13
630.993	0.13
631.327	0.13
631.662	0.12
631.996	0.12
632.33	0.12
632.664	0.13
632.998	0.12
633.332	0.12
633.666	0.13
633.999	0.12
634.333	0.12
634.667	0.12
635.001	0.12
635.334	0.12
635.668	0.12
636.001	0.12
636.335	0.12
636.668	0.12
637.001	0.12
637.335	0.12
637.668	0.12
638.001	0.12
638.334	0.12
638.668	0.12
639.001	0.12
639.334	0.12
639.667	0.12
639.999	0.12
640.332	0.12
640.665	0.12
640.998	0.12
641.331	0.12
641.663	0.12
641.996	0.12
642.328	0.12
642.661	0.12
642.993	0.12
643.326	0.13
643.658	0.12
643.99	0.12
644.323	0.13
644.655	0.12
644.987	0.13
645.319	0.13
645.651	0.13
645.983	0.13
646.315	0.13
646.647	0.13
646.979	0.14
647.31	0.13
647.642	0.13
647.974	0.13
648.305	0.13
648.637	0.12
648.968	0.12
649.3	0.12
649.631	0.13
649.963	0.12
650.294	0.12
650.625	0.12
650.957	0.12
651.288	0.12
651.619	0.12
651.95	0.12
652.281	0.13
652.612	0.12
652.943	0.12
653.274	0.13
653.604	0.13
653.935	0.12
654.266	0.12
654.596	0.12
654.927	0.11
655.258	0.12
655.588	0.13
655.918	0.12
656.249	0.11
656.579	0.12
656.909	0.12
657.24	0.12
657.57	0.12
657.9	0.12
658.23	0.12
658.56	0.12
658.89	0.13
659.22	0.11
659.55	0.12
659.88	0.12
660.209	0.12
660.539	0.13
660.869	0.12
661.198	0.12
661.528	0.12
661.857	0.12
662.187	0.12
662.516	0.12
662.846	0.11
663.175	0.12
663.504	0.12
663.833	0.11
664.163	0.12
664.492	0.11
664.821	0.11
665.15	0.11
665.479	0.11
665.807	0.1
666.136	0.12
666.465	0.11
666.794	0.11
667.122	0.11
667.451	0.12
667.78	0.12
668.108	0.12
668.437	0.11
668.765	0.12
669.093	0.12
669.422	0.12
669.75	0.12
670.078	0.12
670.406	0.12
670.734	0.12
671.062	0.12
671.39	0.12
671.718	0.12
672.046	0.12
672.374	0.12
672.702	0.11
673.029	0.12
673.357	0.12
673.685	0.12
674.012	0.11
674.34	0.12
674.667	0.12
674.995	0.12
675.322	0.12
675.649	0.11
675.977	0.12
676.304	0.12
676.631	0.11
676.958	0.12
677.285	0.11
677.612	0.11
677.939	0.1
678.266	0.11
678.593	0.11
678.92	0.11
679.246	0.11
679.573	0.11
679.9	0.1
680.226	0.11
680.553	0.11
680.879	0.11
681.206	0.12
681.532	0.11
681.858	0.11
682.184	0.11
682.511	0.11
682.837	0.11
683.163	0.12
683.489	0.12
683.815	0.11
684.141	0.11
684.467	0.11
684.793	0.11
685.118	0.11
685.444	0.11
685.77	0.1
686.095	0.11
686.421	0.11
686.746	0.11
687.072	0.1
687.397	0.1
687.723	0.11
688.048	0.11
688.373	0.1
688.698	0.1
689.023	0.1
689.349	0.1
689.674	0.1
689.999	0.09
690.323	0.09
690.648	0.09
690.973	0.09
691.298	0.09
691.623	0.09
691.947	0.1
692.272	0.09
692.596	0.1
692.921	0.1
693.245	0.1
693.57	0.1
693.894	0.11
694.218	0.11
694.543	0.11
694.867	0.1
695.191	0.1
695.515	0.1
695.839	0.1
696.163	0.1
696.487	0.11
696.811	0.1
697.135	0.1
697.458	0.1
697.782	0.09
698.106	0.1
698.429	0.1
698.753	0.09
699.076	0.1
699.4	0.1
699.723	0.09
700.046	0.1
700.37	0.1
700.693	0.1
701.016	0.09
701.339	0.09
701.662	0.1
701.985	0.1
702.308	0.1
702.631	0.1
702.954	0.1
703.277	0.09
703.599	0.1
703.922	0.09
704.245	0.09
704.567	0.09
704.89	0.08
705.212	0.09
705.535	0.08
705.857	0.09
706.179	0.08
706.502	0.08
706.824	0.08
707.146	0.08
707.468	0.09
707.79	0.09
708.112	0.09
708.434	0.08
708.756	0.08
709.078	0.09
709.399	0.08
709.721	0.08
710.043	0.08
710.364	0.09
710.686	0.09
711.007	0.09
711.329	0.09
711.65	0.09
711.972	0.09
712.293	0.09
712.614	0.09
712.935	0.09
713.256	0.09
713.577	0.1
713.898	0.09
714.219	0.08
714.54	0.09
714.861	0.09
715.182	0.09
715.503	0.09
715.823	0.09
716.144	0.09
716.464	0.08
716.785	0.08
717.105	0.09
717.426	0.08
717.746	0.08
718.066	0.08
718.387	0.08
718.707	0.08
719.027	0.08
719.347	0.07
719.667	0.08
719.987	0.08
720.307	0.07
720.627	0.07
720.947	0.08
721.266	0.07
721.586	0.07
721.906	0.07
722.225	0.06
722.545	0.07
722.864	0.07
723.184	0.08
723.503	0.07
723.823	0.09
