Data from 12-12-AQDScycling_Absorbance__404__00404.txt Node

Date: Tue Dec 12 12:37:44 EST 2023
User: kyuminlee
Spectrometer: FLMS00943
Trigger mode: 0
Integration Time (sec): 1.000000E-1
Scans to average: 1
Electric dark correction enabled: true
Nonlinearity correction enabled: false
Boxcar width: 0
XAxis mode: Wavelengths
Number of Pixels in Spectrum: 2048
>>>>>Begin Spectral Data<<<<<
179.651	0.14
180.037	0.14
180.424	0.14
180.81	-0
181.197	0.1
181.583	-0
181.97	-0
182.356	-0
182.743	-0
183.129	0.1
183.515	-0
183.901	-1.8
184.288	0.14
184.674	-0
185.06	-0.89
185.446	-0
185.832	-0
186.218	0.58
186.604	0.04
186.99	-0
187.376	0.17
187.762	-0.41
188.148	0.49
188.534	-0.31
188.92	0.03
189.305	0.1
189.691	0.2
190.077	0.1
190.463	0.12
190.848	0.05
191.234	0.08
191.619	0.18
192.005	0
192.391	0.31
192.776	0.13
193.161	0.3
193.547	0.14
193.932	0.01
194.318	0.21
194.703	0.22
195.088	0.29
195.473	0.1
195.859	0.24
196.244	0.23
196.629	0.23
197.014	0.14
197.399	0.2
197.784	0.26
198.169	0.43
198.554	0.32
198.939	0.16
199.324	0.16
199.709	0.09
200.094	0.09
200.478	0.14
200.863	0.17
201.248	0.09
201.633	0.24
202.017	0.09
202.402	0.25
202.787	0.13
203.171	0.32
203.556	0.27
203.94	0.16
204.325	0.26
204.709	0.15
205.093	0.13
205.478	0.31
205.862	0.18
206.246	0.3
206.631	0.13
207.015	0.14
207.399	0.34
207.783	0.1
208.167	0.17
208.551	0.19
208.935	0.18
209.319	0.2
209.703	0.23
210.087	0.37
210.471	0.06
210.855	0.18
211.239	0.29
211.623	0.36
212.007	0.35
212.39	0.3
212.774	0.25
213.158	0.1
213.541	0.44
213.925	0.23
214.309	0.33
214.692	0.37
215.076	0.19
215.459	0.33
215.842	0.11
216.226	0.36
216.609	0.43
216.993	0.28
217.376	0.56
217.759	0.31
218.142	0.3
218.525	0.5
218.909	0.31
219.292	0.35
219.675	0.48
220.058	0.37
220.441	0.51
220.824	0.5
221.207	0.57
221.59	0.49
221.973	0.54
222.355	0.54
222.738	0.78
223.121	0.62
223.504	0.52
223.886	0.63
224.269	0.72
224.652	0.72
225.034	0.76
225.417	0.69
225.799	0.9
226.182	0.86
226.564	0.93
226.947	0.75
227.329	0.85
227.711	0.85
228.094	1.27
228.476	0.98
228.858	0.87
229.24	0.93
229.623	0.97
230.005	0.9
230.387	0.94
230.769	0.88
231.151	1.04
231.533	0.94
231.915	1.04
232.297	1.09
232.679	1
233.061	1
233.442	1.08
233.824	1.08
234.206	1.11
234.588	1.09
234.969	1.1
235.351	1.04
235.733	1.15
236.114	1.14
236.496	1.22
236.877	1.27
237.259	1.21
237.64	1.08
238.022	1.16
238.403	1.08
238.784	1.09
239.165	0.96
239.547	1.11
239.928	1.2
240.309	1.08
240.69	1.13
241.071	1.1
241.452	1.13
241.834	1.04
242.215	1.13
242.595	1
242.976	1.12
243.357	1.12
243.738	1.08
244.119	1.39
244.5	1.18
244.881	1.34
245.261	1.23
245.642	1.25
246.023	1.27
246.403	1.18
246.784	1.26
247.164	1.33
247.545	1.48
247.925	1.32
248.306	1.22
248.686	1.38
249.067	1.37
249.447	1.42
249.827	1.48
250.207	1.56
250.588	1.32
250.968	1.43
251.348	1.39
251.728	1.38
252.108	1.42
252.488	1.49
252.868	1.43
253.248	1.31
253.628	1.37
254.008	1.54
254.388	1.32
254.768	1.37
255.147	1.5
255.527	1.4
255.907	1.51
256.287	1.56
256.666	1.54
257.046	1.37
257.425	1.69
257.805	1.33
258.184	1.27
258.564	1.58
258.943	1.44
259.323	1.52
259.702	1.48
260.081	1.6
260.461	1.59
260.84	1.58
261.219	1.62
261.598	1.78
261.977	1.51
262.356	1.61
262.736	1.44
263.115	1.73
263.494	1.45
263.873	1.63
264.251	1.51
264.63	1.62
265.009	1.55
265.388	1.53
265.767	1.3
266.145	1.47
266.524	1.4
266.903	1.45
267.281	1.47
267.66	1.47
268.039	1.45
268.417	1.41
268.796	1.43
269.174	1.61
269.552	1.39
269.931	1.54
270.309	1.51
270.687	1.7
271.066	1.61
271.444	1.5
271.822	1.55
272.2	1.52
272.578	1.35
272.956	1.37
273.334	1.46
273.712	1.45
274.09	1.63
274.468	1.42
274.846	1.36
275.224	1.36
275.602	1.49
275.98	1.54
276.357	1.46
276.735	1.71
277.113	1.29
277.49	1.52
277.868	1.37
278.246	1.5
278.623	1.32
279.001	1.36
279.378	1.35
279.756	1.53
280.133	1.52
280.51	1.52
280.888	1.4
281.265	1.41
281.642	1.52
282.019	1.54
282.396	1.66
282.773	1.36
283.151	1.5
283.528	1.49
283.905	1.39
284.282	1.52
284.659	1.59
285.035	1.43
285.412	1.39
285.789	1.52
286.166	1.44
286.543	1.44
286.919	1.48
287.296	1.45
287.673	1.69
288.049	1.53
288.426	1.7
288.802	1.35
289.179	1.53
289.555	1.84
289.932	1.58
290.308	1.36
290.684	1.48
291.061	1.43
291.437	1.69
291.813	1.48
292.189	1.34
292.565	1.39
292.942	1.56
293.318	1.54
293.694	1.51
294.07	1.38
294.446	1.45
294.822	1.56
295.197	1.5
295.573	1.66
295.949	1.63
296.325	1.39
296.701	1.41
297.076	1.58
297.452	1.55
297.828	1.45
298.203	1.55
298.579	1.39
298.954	1.47
299.33	1.43
299.705	1.44
300.081	1.54
300.456	1.49
300.831	1.48
301.206	1.39
301.582	1.59
301.957	1.35
302.332	1.55
302.707	1.33
303.082	1.32
303.457	1.4
303.832	1.44
304.207	1.34
304.582	1.33
304.957	1.36
305.332	1.41
305.707	1.39
306.082	1.4
306.456	1.44
306.831	1.25
307.206	1.36
307.58	1.3
307.955	1.26
308.33	1.27
308.704	1.26
309.079	1.3
309.453	1.43
309.828	1.34
310.202	1.26
310.576	1.3
310.951	1.32
311.325	1.39
311.699	1.21
312.073	1.23
312.447	1.28
312.821	1.21
313.196	1.27
313.57	1.15
313.944	1.28
314.317	1.24
314.691	1.32
315.065	1.29
315.439	1.29
315.813	1.31
316.187	1.25
316.56	1.28
316.934	1.23
317.308	1.16
317.681	1.18
318.055	1.25
318.428	1.24
318.802	1.32
319.175	1.22
319.549	1.36
319.922	1.22
320.295	1.21
320.669	1.31
321.042	1.28
321.415	1.38
321.788	1.26
322.162	1.24
322.535	1.44
322.908	1.36
323.281	1.27
323.654	1.34
324.027	1.27
324.4	1.33
324.773	1.27
325.145	1.41
325.518	1.24
325.891	1.27
326.264	1.33
326.636	1.21
327.009	1.27
327.382	1.32
327.754	1.34
328.127	1.34
328.499	1.32
328.872	1.29
329.244	1.34
329.616	1.24
329.989	1.43
330.361	1.4
330.733	1.23
331.106	1.29
331.478	1.46
331.85	1.34
332.222	1.24
332.594	1.37
332.966	1.32
333.338	1.36
333.71	1.43
334.082	1.39
334.454	1.28
334.826	1.38
335.197	1.38
335.569	1.29
335.941	1.28
336.312	1.37
336.684	1.31
337.056	1.28
337.427	1.37
337.799	1.43
338.17	1.42
338.542	1.36
338.913	1.4
339.284	1.47
339.656	1.35
340.027	1.47
340.398	1.4
340.769	1.34
341.141	1.46
341.512	1.42
341.883	1.37
342.254	1.3
342.625	1.48
342.996	1.33
343.367	1.4
343.738	1.38
344.108	1.31
344.479	1.48
344.85	1.31
345.221	1.58
345.591	1.34
345.962	1.4
346.333	1.4
346.703	1.26
347.074	1.32
347.444	1.35
347.815	1.37
348.185	1.39
348.556	1.31
348.926	1.32
349.296	1.39
349.666	1.38
350.037	1.26
350.407	1.26
350.777	1.25
351.147	1.4
351.517	1.37
351.887	1.4
352.257	1.4
352.627	1.32
352.997	1.27
353.367	1.36
353.737	1.4
354.106	1.43
354.476	1.35
354.846	1.47
355.216	1.48
355.585	1.49
355.955	1.38
356.324	1.46
356.694	1.39
357.063	1.37
357.433	1.41
357.802	1.44
358.171	1.38
358.541	1.41
358.91	1.47
359.279	1.42
359.648	1.39
360.017	1.5
360.387	1.45
360.756	1.38
361.125	1.4
361.494	1.53
361.863	1.4
362.231	1.41
362.6	1.48
362.969	1.57
363.338	1.51
363.707	1.55
364.075	1.6
364.444	1.34
364.813	1.38
365.181	1.4
365.55	1.48
365.918	1.62
366.287	1.48
366.655	1.46
367.024	1.62
367.392	1.63
367.76	1.52
368.128	1.55
368.497	1.56
368.865	1.42
369.233	1.4
369.601	1.42
369.969	1.49
370.337	1.56
370.705	1.4
371.073	1.62
371.441	1.56
371.809	1.5
372.177	1.45
372.544	1.45
372.912	1.57
373.28	1.48
373.647	1.44
374.015	1.59
374.383	1.74
374.75	1.62
375.118	1.53
375.485	1.57
375.853	1.54
376.22	1.49
376.587	1.49
376.955	1.7
377.322	1.6
377.689	1.53
378.056	1.5
378.423	1.45
378.79	1.5
379.157	1.62
379.524	1.7
379.891	1.56
380.258	1.75
380.625	1.55
380.992	1.54
381.359	1.65
381.726	1.8
382.092	1.44
382.459	1.65
382.826	1.53
383.192	1.46
383.559	1.66
383.925	1.73
384.292	1.54
384.658	1.73
385.025	1.74
385.391	1.56
385.757	1.78
386.123	1.65
386.49	1.6
386.856	1.55
387.222	1.62
387.588	1.51
387.954	1.7
388.32	1.8
388.686	1.67
389.052	1.52
389.418	1.64
389.784	1.65
390.15	1.87
390.515	1.41
390.881	1.73
391.247	1.54
391.613	1.58
391.978	1.49
392.344	1.57
392.709	1.63
393.075	1.56
393.44	1.52
393.806	1.62
394.171	1.44
394.536	1.51
394.902	1.68
395.267	1.62
395.632	1.52
395.997	1.57
396.362	1.44
396.727	1.59
397.092	1.5
397.457	1.49
397.822	1.6
398.187	1.65
398.552	1.49
398.917	1.76
399.282	1.46
399.646	1.59
400.011	1.74
400.376	1.46
400.74	1.47
401.105	1.5
401.47	1.56
401.834	1.55
402.199	1.49
402.563	1.7
402.927	1.56
403.292	1.66
403.656	1.64
404.02	1.67
404.384	1.73
404.749	1.56
405.113	1.58
405.477	1.61
405.841	1.71
406.205	1.61
406.569	1.48
406.933	1.45
407.296	1.58
407.66	1.57
408.024	1.57
408.388	1.67
408.752	1.61
409.115	1.64
409.479	1.58
409.842	1.61
410.206	1.46
410.569	1.42
410.933	1.5
411.296	1.42
411.66	1.51
412.023	1.38
412.386	1.63
412.749	1.43
413.113	1.65
413.476	1.52
413.839	1.37
414.202	1.51
414.565	1.32
414.928	1.46
415.291	1.34
415.654	1.46
416.017	1.5
416.38	1.39
416.742	1.32
417.105	1.41
417.468	1.4
417.83	1.37
418.193	1.51
418.556	1.33
418.918	1.38
419.281	1.41
419.643	1.4
420.005	1.6
420.368	1.45
420.73	1.44
421.092	1.56
421.455	1.54
421.817	1.28
422.179	1.41
422.541	1.36
422.903	1.49
423.265	1.53
423.627	1.43
423.989	1.41
424.351	1.43
424.713	1.37
425.075	1.35
425.436	1.34
425.798	1.33
426.16	1.37
426.521	1.37
426.883	1.44
427.245	1.41
427.606	1.38
427.967	1.34
428.329	1.46
428.69	1.52
429.052	1.36
429.413	1.42
429.774	1.33
430.135	1.39
430.497	1.47
430.858	1.35
431.219	1.34
431.58	1.31
431.941	1.34
432.302	1.37
432.663	1.33
433.024	1.36
433.384	1.35
433.745	1.33
434.106	1.37
434.467	1.35
434.827	1.35
435.188	1.32
435.548	1.37
435.909	1.3
436.269	1.43
436.63	1.32
436.99	1.29
437.351	1.24
437.711	1.34
438.071	1.22
438.431	1.31
438.792	1.26
439.152	1.24
439.512	1.24
439.872	1.22
440.232	1.28
440.592	1.23
440.952	1.25
441.312	1.18
441.671	1.26
442.031	1.2
442.391	1.25
442.751	1.23
443.11	1.21
443.47	1.16
443.83	1.23
444.189	1.17
444.549	1.14
444.908	1.08
445.267	1.15
445.627	1.17
445.986	1.15
446.345	1.1
446.705	1.14
447.064	1.15
447.423	1.09
447.782	1.1
448.141	1.11
448.5	1.02
448.859	1.07
449.218	1.07
449.577	1.09
449.936	1.09
450.295	1.04
450.653	1.04
451.012	1.06
451.371	1.06
451.729	1.02
452.088	1.03
452.447	1.04
452.805	1
453.163	1.02
453.522	1
453.88	0.98
454.239	0.99
454.597	0.98
454.955	0.94
455.313	0.93
455.671	0.94
456.029	0.95
456.388	0.9
456.746	0.91
457.104	0.9
457.461	0.89
457.819	0.87
458.177	0.86
458.535	0.86
458.893	0.84
459.25	0.84
459.608	0.82
459.966	0.81
460.323	0.81
460.681	0.79
461.038	0.78
461.396	0.76
461.753	0.77
462.111	0.76
462.468	0.74
462.825	0.73
463.182	0.72
463.54	0.72
463.897	0.72
464.254	0.71
464.611	0.7
464.968	0.68
465.325	0.68
465.682	0.66
466.039	0.65
466.395	0.65
466.752	0.65
467.109	0.62
467.466	0.63
467.822	0.63
468.179	0.61
468.535	0.59
468.892	0.58
469.248	0.57
469.605	0.57
469.961	0.56
470.318	0.57
470.674	0.55
471.03	0.55
471.386	0.53
471.743	0.52
472.099	0.52
472.455	0.52
472.811	0.5
473.167	0.5
473.523	0.5
473.879	0.48
474.235	0.48
474.59	0.46
474.946	0.45
475.302	0.45
475.657	0.45
476.013	0.44
476.369	0.43
476.724	0.43
477.08	0.42
477.435	0.41
477.791	0.41
478.146	0.4
478.501	0.4
478.857	0.39
479.212	0.38
479.567	0.38
479.922	0.38
480.277	0.37
480.632	0.36
480.987	0.36
481.342	0.35
481.697	0.33
482.052	0.34
482.407	0.33
482.762	0.33
483.116	0.33
483.471	0.32
483.826	0.31
484.18	0.31
484.535	0.31
484.89	0.3
485.244	0.3
485.598	0.29
485.953	0.28
486.307	0.29
486.661	0.28
487.016	0.28
487.37	0.28
487.724	0.27
488.078	0.27
488.432	0.26
488.786	0.26
489.14	0.26
489.494	0.25
489.848	0.25
490.202	0.25
490.556	0.24
490.91	0.24
491.263	0.24
491.617	0.23
491.971	0.23
492.324	0.23
492.678	0.23
493.031	0.24
493.385	0.22
493.738	0.22
494.091	0.22
494.445	0.22
494.798	0.21
495.151	0.21
495.504	0.21
495.857	0.21
496.21	0.21
496.564	0.2
496.916	0.21
497.269	0.19
497.622	0.2
497.975	0.2
498.328	0.2
498.681	0.19
499.033	0.19
499.386	0.19
499.739	0.19
500.091	0.19
500.444	0.19
500.796	0.19
501.149	0.18
501.501	0.19
501.854	0.18
502.206	0.18
502.558	0.18
502.91	0.18
503.263	0.17
503.615	0.18
503.967	0.17
504.319	0.17
504.671	0.17
505.023	0.17
505.375	0.16
505.726	0.17
506.078	0.17
506.43	0.15
506.782	0.16
507.133	0.17
507.485	0.18
507.837	0.17
508.188	0.17
508.54	0.17
508.891	0.17
509.243	0.16
509.594	0.17
509.945	0.16
510.296	0.16
510.648	0.17
510.999	0.16
511.35	0.16
511.701	0.16
512.052	0.16
512.403	0.16
512.754	0.16
513.105	0.16
513.456	0.16
513.807	0.16
514.157	0.16
514.508	0.16
514.859	0.16
515.209	0.16
515.56	0.16
515.91	0.15
516.261	0.16
516.611	0.15
516.962	0.16
517.312	0.15
517.662	0.16
518.013	0.16
518.363	0.16
518.713	0.15
519.063	0.15
519.413	0.16
519.763	0.16
520.113	0.16
520.463	0.16
520.813	0.16
521.163	0.17
521.512	0.16
521.862	0.16
522.212	0.16
522.562	0.16
522.911	0.15
523.261	0.16
523.61	0.16
523.96	0.16
524.309	0.16
524.658	0.16
525.008	0.15
525.357	0.15
525.706	0.16
526.056	0.16
526.405	0.16
526.754	0.16
527.103	0.15
527.452	0.16
527.801	0.16
528.15	0.16
528.499	0.16
528.847	0.16
529.196	0.16
529.545	0.17
529.893	0.16
530.242	0.16
530.591	0.17
530.939	0.17
531.288	0.17
531.636	0.17
531.985	0.16
532.333	0.16
532.681	0.16
533.029	0.16
533.378	0.16
533.726	0.16
534.074	0.17
534.422	0.16
534.77	0.17
535.118	0.16
535.466	0.16
535.814	0.16
536.162	0.16
536.509	0.17
536.857	0.16
537.205	0.17
537.552	0.17
537.9	0.17
538.248	0.16
538.595	0.17
538.943	0.17
539.29	0.17
539.637	0.17
539.985	0.17
540.332	0.16
540.679	0.16
541.026	0.16
541.373	0.17
541.721	0.15
542.068	0.16
542.415	0.16
542.762	0.16
543.108	0.15
543.455	0.16
543.802	0.15
544.149	0.16
544.496	0.16
544.842	0.15
545.189	0.15
545.535	0.16
545.882	0.16
546.228	0.16
546.575	0.15
546.921	0.15
547.267	0.15
547.614	0.15
547.96	0.15
548.306	0.15
548.652	0.16
548.998	0.16
549.344	0.16
549.69	0.16
550.036	0.16
550.382	0.16
550.728	0.16
551.074	0.16
551.42	0.16
551.765	0.16
552.111	0.17
552.457	0.17
552.802	0.16
553.148	0.16
553.493	0.16
553.839	0.16
554.184	0.16
554.529	0.16
554.875	0.17
555.22	0.17
555.565	0.16
555.91	0.17
556.255	0.17
556.6	0.17
556.945	0.16
557.29	0.17
557.635	0.17
557.98	0.16
558.325	0.16
558.67	0.17
559.014	0.16
559.359	0.17
559.704	0.17
560.048	0.16
560.393	0.16
560.737	0.16
561.082	0.17
561.426	0.16
561.77	0.17
562.115	0.16
562.459	0.17
562.803	0.16
563.147	0.16
563.491	0.16
563.835	0.16
564.179	0.16
564.523	0.16
564.867	0.15
565.211	0.16
565.555	0.16
565.899	0.17
566.242	0.17
566.586	0.15
566.93	0.17
567.273	0.17
567.617	0.17
567.96	0.17
568.304	0.17
568.647	0.17
568.99	0.17
569.334	0.18
569.677	0.16
570.02	0.17
570.363	0.17
570.706	0.17
571.049	0.17
571.392	0.17
571.735	0.16
572.078	0.16
572.421	0.17
572.764	0.16
573.106	0.16
573.449	0.17
573.792	0.17
574.134	0.16
574.477	0.16
574.819	0.16
575.162	0.16
575.504	0.16
575.847	0.16
576.189	0.17
576.531	0.17
576.873	0.16
577.215	0.16
577.558	0.17
577.9	0.16
578.242	0.16
578.584	0.17
578.926	0.16
579.267	0.17
579.609	0.16
579.951	0.17
580.293	0.16
580.634	0.17
580.976	0.17
581.318	0.17
581.659	0.16
582.001	0.17
582.342	0.16
582.683	0.17
583.025	0.16
583.366	0.17
583.707	0.17
584.049	0.16
584.39	0.16
584.731	0.17
585.072	0.16
585.413	0.17
585.754	0.16
586.095	0.16
586.435	0.16
586.776	0.18
587.117	0.16
587.458	0.15
587.798	0.17
588.139	0.16
588.48	0.16
588.82	0.16
589.161	0.16
589.501	0.16
589.841	0.16
590.182	0.16
590.522	0.16
590.862	0.15
591.202	0.16
591.542	0.16
591.882	0.16
592.222	0.16
592.562	0.16
592.902	0.16
593.242	0.16
593.582	0.16
593.922	0.16
594.261	0.16
594.601	0.16
594.941	0.16
595.28	0.16
595.62	0.16
595.959	0.17
596.299	0.16
596.638	0.17
596.977	0.16
597.317	0.16
597.656	0.16
597.995	0.16
598.334	0.17
598.673	0.16
599.012	0.16
599.351	0.16
599.69	0.16
600.029	0.16
600.368	0.17
600.707	0.16
601.046	0.17
601.384	0.17
601.723	0.17
602.061	0.16
602.4	0.17
602.738	0.16
603.077	0.16
603.415	0.16
603.754	0.17
604.092	0.16
604.43	0.16
604.768	0.16
605.107	0.16
605.445	0.16
605.783	0.15
606.121	0.15
606.459	0.16
606.796	0.16
607.134	0.15
607.472	0.16
607.81	0.16
608.148	0.15
608.485	0.16
608.823	0.16
609.16	0.15
609.498	0.16
609.835	0.15
610.173	0.15
610.51	0.16
610.847	0.17
611.185	0.16
611.522	0.16
611.859	0.17
612.196	0.16
612.533	0.17
612.87	0.16
613.207	0.17
613.544	0.16
613.881	0.17
614.217	0.17
614.554	0.17
614.891	0.17
615.228	0.16
615.564	0.16
615.901	0.16
616.237	0.16
616.574	0.16
616.91	0.17
617.246	0.17
617.583	0.17
617.919	0.16
618.255	0.17
618.591	0.17
618.927	0.16
619.263	0.17
619.599	0.17
619.935	0.17
620.271	0.17
620.607	0.16
620.943	0.16
621.279	0.16
621.614	0.17
621.95	0.17
622.286	0.16
622.621	0.16
622.957	0.16
623.292	0.15
623.627	0.15
623.963	0.15
624.298	0.15
624.633	0.15
624.968	0.15
625.304	0.15
625.639	0.16
625.974	0.15
626.309	0.15
626.644	0.15
626.979	0.15
627.313	0.15
627.648	0.15
627.983	0.15
628.318	0.15
628.652	0.14
628.987	0.15
629.321	0.15
629.656	0.14
629.99	0.14
630.325	0.15
630.659	0.14
630.993	0.14
631.327	0.15
631.662	0.14
631.996	0.14
632.33	0.14
632.664	0.15
632.998	0.15
633.332	0.14
633.666	0.14
633.999	0.14
634.333	0.14
634.667	0.14
635.001	0.14
635.334	0.14
635.668	0.14
636.001	0.14
636.335	0.14
636.668	0.14
637.001	0.13
637.335	0.14
637.668	0.14
638.001	0.13
638.334	0.14
638.668	0.14
639.001	0.13
639.334	0.13
639.667	0.13
639.999	0.13
640.332	0.13
640.665	0.13
640.998	0.13
641.331	0.13
641.663	0.12
641.996	0.13
642.328	0.13
642.661	0.14
642.993	0.13
643.326	0.13
643.658	0.12
643.99	0.13
644.323	0.12
644.655	0.13
644.987	0.13
645.319	0.13
645.651	0.13
645.983	0.13
646.315	0.12
646.647	0.13
646.979	0.14
647.31	0.13
647.642	0.13
647.974	0.13
648.305	0.13
648.637	0.13
648.968	0.13
649.3	0.13
649.631	0.14
649.963	0.12
650.294	0.13
650.625	0.14
650.957	0.13
651.288	0.14
651.619	0.14
651.95	0.13
652.281	0.13
652.612	0.14
652.943	0.13
653.274	0.14
653.604	0.14
653.935	0.13
654.266	0.13
654.596	0.13
654.927	0.13
655.258	0.14
655.588	0.13
655.918	0.13
656.249	0.11
656.579	0.13
656.909	0.13
657.24	0.13
657.57	0.13
657.9	0.13
658.23	0.13
658.56	0.14
658.89	0.14
659.22	0.13
659.55	0.13
659.88	0.13
660.209	0.14
660.539	0.15
660.869	0.14
661.198	0.14
661.528	0.14
661.857	0.14
662.187	0.13
662.516	0.14
662.846	0.13
663.175	0.13
663.504	0.13
663.833	0.13
664.163	0.13
664.492	0.13
664.821	0.13
665.15	0.13
665.479	0.13
665.807	0.12
666.136	0.13
666.465	0.12
666.794	0.12
667.122	0.13
667.451	0.12
667.78	0.12
668.108	0.13
668.437	0.12
668.765	0.12
669.093	0.13
669.422	0.12
669.75	0.13
670.078	0.12
670.406	0.12
670.734	0.12
671.062	0.12
671.39	0.12
671.718	0.12
672.046	0.13
672.374	0.12
672.702	0.12
673.029	0.12
673.357	0.12
673.685	0.13
674.012	0.12
674.34	0.12
674.667	0.12
674.995	0.12
675.322	0.12
675.649	0.11
675.977	0.12
676.304	0.12
676.631	0.12
676.958	0.12
677.285	0.12
677.612	0.12
677.939	0.12
678.266	0.12
678.593	0.12
678.92	0.13
679.246	0.12
679.573	0.12
679.9	0.12
680.226	0.12
680.553	0.11
680.879	0.12
681.206	0.12
681.532	0.11
681.858	0.11
682.184	0.11
682.511	0.11
682.837	0.11
683.163	0.12
683.489	0.11
683.815	0.11
684.141	0.11
684.467	0.1
684.793	0.11
685.118	0.11
685.444	0.11
685.77	0.11
686.095	0.11
686.421	0.11
686.746	0.11
687.072	0.11
687.397	0.11
687.723	0.11
688.048	0.12
688.373	0.11
688.698	0.11
689.023	0.11
689.349	0.11
689.674	0.11
689.999	0.11
690.323	0.1
690.648	0.1
690.973	0.1
691.298	0.11
691.623	0.11
691.947	0.11
692.272	0.1
692.596	0.11
692.921	0.11
693.245	0.1
693.57	0.11
693.894	0.11
694.218	0.1
694.543	0.11
694.867	0.1
695.191	0.1
695.515	0.11
695.839	0.1
696.163	0.11
696.487	0.11
696.811	0.09
697.135	0.11
697.458	0.1
697.782	0.1
698.106	0.11
698.429	0.1
698.753	0.1
699.076	0.1
699.4	0.1
699.723	0.1
700.046	0.09
700.37	0.1
700.693	0.1
701.016	0.1
701.339	0.1
701.662	0.11
701.985	0.11
702.308	0.09
702.631	0.1
702.954	0.11
703.277	0.1
703.599	0.1
703.922	0.09
704.245	0.09
704.567	0.1
704.89	0.09
705.212	0.1
705.535	0.09
705.857	0.09
706.179	0.08
706.502	0.08
706.824	0.08
707.146	0.09
707.468	0.09
707.79	0.09
708.112	0.09
708.434	0.08
708.756	0.09
709.078	0.09
709.399	0.08
709.721	0.09
710.043	0.1
710.364	0.1
710.686	0.09
711.007	0.09
711.329	0.1
711.65	0.09
711.972	0.09
712.293	0.1
712.614	0.09
712.935	0.1
713.256	0.1
713.577	0.1
713.898	0.09
714.219	0.09
714.54	0.09
714.861	0.08
715.182	0.09
715.503	0.08
715.823	0.09
716.144	0.08
716.464	0.08
716.785	0.07
717.105	0.08
717.426	0.09
717.746	0.07
718.066	0.07
718.387	0.08
718.707	0.06
719.027	0.08
719.347	0.07
719.667	0.07
719.987	0.07
720.307	0.07
720.627	0.07
720.947	0.08
721.266	0.08
721.586	0.07
721.906	0.08
722.225	0.07
722.545	0.07
722.864	0.07
723.184	0.07
723.503	0.07
723.823	0.07
724.142	0.07
