Data from 12-12-AQDScycling_Absorbance__885__00885.txt Node

Date: Tue Dec 12 14:37:59 EST 2023
User: kyuminlee
Spectrometer: FLMS00943
Trigger mode: 0
Integration Time (sec): 1.000000E-1
Scans to average: 1
Electric dark correction enabled: true
Nonlinearity correction enabled: false
Boxcar width: 0
XAxis mode: Wavelengths
Number of Pixels in Spectrum: 2048
>>>>>Begin Spectral Data<<<<<
179.651	-0
180.037	-0
180.424	-0
180.81	-0.43
181.197	0.16
181.583	0.23
181.97	0.06
182.356	-0
182.743	-0
183.129	0.3
183.515	-0
183.901	-2.4
184.288	0.18
184.674	-0
185.06	-0.95
185.446	0.19
185.832	-1.6
186.218	0.23
186.604	0.6
186.99	-0
187.376	-0
187.762	-0.51
188.148	0.11
188.534	-0.23
188.92	0.03
189.305	0.09
189.691	0.21
190.077	0.12
190.463	-0
190.848	0.04
191.234	0.08
191.619	0.07
192.005	0.11
192.391	0.14
192.776	0.1
193.161	0.21
193.547	0.11
193.932	0.12
194.318	0.05
194.703	0.1
195.088	0.13
195.473	0.21
195.859	0.23
196.244	0.12
196.629	0.04
197.014	0.08
197.399	0.18
197.784	0.22
198.169	0.13
198.554	0.25
198.939	0.06
199.324	0.15
199.709	0.09
200.094	0.11
200.478	0.11
200.863	0.12
201.248	0.1
201.633	0.14
202.017	0.13
202.402	0.31
202.787	0.03
203.171	0.07
203.556	0.28
203.94	0.22
204.325	0.22
204.709	0.17
205.093	0.14
205.478	0.13
205.862	0.06
206.246	0.35
206.631	0.05
207.015	0.2
207.399	0.18
207.783	0.24
208.167	0.2
208.551	0.2
208.935	0.07
209.319	0.21
209.703	0.16
210.087	0.22
210.471	-0.01
210.855	0.31
211.239	0.15
211.623	0.15
212.007	0.22
212.39	0.37
212.774	0.17
213.158	0.13
213.541	0.28
213.925	0.24
214.309	0.29
214.692	0.23
215.076	0.19
215.459	0.2
215.842	0.2
216.226	0.25
216.609	0.22
216.993	0.26
217.376	0.35
217.759	0.24
218.142	0.37
218.525	0.61
218.909	0.35
219.292	0.32
219.675	0.47
220.058	0.4
220.441	0.42
220.824	0.47
221.207	0.6
221.59	0.54
221.973	0.57
222.355	0.67
222.738	0.55
223.121	0.55
223.504	0.59
223.886	0.6
224.269	0.73
224.652	0.62
225.034	0.76
225.417	0.66
225.799	0.78
226.182	0.81
226.564	0.72
226.947	0.68
227.329	0.86
227.711	1
228.094	1.08
228.476	0.93
228.858	0.8
229.24	0.78
229.623	0.89
230.005	0.81
230.387	0.92
230.769	0.89
231.151	0.96
231.533	0.99
231.915	0.91
232.297	1.05
232.679	1.01
233.061	0.97
233.442	1.03
233.824	1.08
234.206	1.08
234.588	1
234.969	1.16
235.351	0.86
235.733	1.12
236.114	1.11
236.496	0.97
236.877	0.99
237.259	0.99
237.64	1.02
238.022	0.9
238.403	1.01
238.784	1.08
239.165	0.94
239.547	1.08
239.928	1.15
240.309	1.06
240.69	1.07
241.071	1.06
241.452	1.18
241.834	1.01
242.215	0.98
242.595	1.14
242.976	1.14
243.357	1.17
243.738	0.98
244.119	1.21
244.5	1.17
244.881	1.32
245.261	1.23
245.642	1.17
246.023	1.28
246.403	1.27
246.784	1.34
247.164	1.27
247.545	1.25
247.925	1.26
248.306	1.15
248.686	1.5
249.067	1.24
249.447	1.44
249.827	1.43
250.207	1.41
250.588	1.34
250.968	1.46
251.348	1.29
251.728	1.43
252.108	1.31
252.488	1.54
252.868	1.32
253.248	1.31
253.628	1.44
254.008	1.46
254.388	1.26
254.768	1.42
255.147	1.46
255.527	1.42
255.907	1.38
256.287	1.25
256.666	1.47
257.046	1.5
257.425	1.49
257.805	1.35
258.184	1.36
258.564	1.38
258.943	1.39
259.323	1.4
259.702	1.41
260.081	1.41
260.461	1.47
260.84	1.41
261.219	1.62
261.598	1.55
261.977	1.49
262.356	1.52
262.736	1.48
263.115	1.69
263.494	1.45
263.873	1.62
264.251	1.41
264.63	1.44
265.009	1.49
265.388	1.45
265.767	1.39
266.145	1.36
266.524	1.39
266.903	1.48
267.281	1.41
267.66	1.52
268.039	1.59
268.417	1.46
268.796	1.31
269.174	1.4
269.552	1.27
269.931	1.52
270.309	1.42
270.687	1.55
271.066	1.61
271.444	1.4
271.822	1.42
272.2	1.39
272.578	1.45
272.956	1.43
273.334	1.51
273.712	1.43
274.09	1.52
274.468	1.24
274.846	1.28
275.224	1.39
275.602	1.37
275.98	1.61
276.357	1.45
276.735	1.4
277.113	1.39
277.49	1.44
277.868	1.29
278.246	1.31
278.623	1.43
279.001	1.26
279.378	1.5
279.756	1.47
280.133	1.54
280.51	1.4
280.888	1.4
281.265	1.48
281.642	1.45
282.019	1.52
282.396	1.57
282.773	1.43
283.151	1.58
283.528	1.43
283.905	1.43
284.282	1.51
284.659	1.54
285.035	1.29
285.412	1.35
285.789	1.43
286.166	1.48
286.543	1.44
286.919	1.41
287.296	1.29
287.673	1.68
288.049	1.56
288.426	1.59
288.802	1.51
289.179	1.44
289.555	1.66
289.932	1.38
290.308	1.3
290.684	1.43
291.061	1.29
291.437	1.58
291.813	1.41
292.189	1.36
292.565	1.25
292.942	1.27
293.318	1.42
293.694	1.39
294.07	1.3
294.446	1.42
294.822	1.56
295.197	1.39
295.573	1.4
295.949	1.55
296.325	1.48
296.701	1.45
297.076	1.68
297.452	1.49
297.828	1.39
298.203	1.4
298.579	1.47
298.954	1.4
299.33	1.42
299.705	1.45
300.081	1.46
300.456	1.33
300.831	1.35
301.206	1.24
301.582	1.32
301.957	1.4
302.332	1.46
302.707	1.28
303.082	1.27
303.457	1.41
303.832	1.29
304.207	1.26
304.582	1.32
304.957	1.3
305.332	1.38
305.707	1.3
306.082	1.32
306.456	1.4
306.831	1.26
307.206	1.3
307.58	1.27
307.955	1.21
308.33	1.22
308.704	1.27
309.079	1.18
309.453	1.33
309.828	1.27
310.202	1.17
310.576	1.17
310.951	1.24
311.325	1.2
311.699	1.2
312.073	1.23
312.447	1.2
312.821	1.13
313.196	1.21
313.57	1.18
313.944	1.14
314.317	1.14
314.691	1.25
315.065	1.17
315.439	1.18
315.813	1.22
316.187	1.14
316.56	1.26
316.934	1.19
317.308	1.19
317.681	1.21
318.055	1.12
318.428	1.18
318.802	1.19
319.175	1.14
319.549	1.19
319.922	1.14
320.295	1.18
320.669	1.26
321.042	1.17
321.415	1.24
321.788	1.22
322.162	1.2
322.535	1.25
322.908	1.22
323.281	1.23
323.654	1.27
324.027	1.2
324.4	1.17
324.773	1.26
325.145	1.27
325.518	1.12
325.891	1.17
326.264	1.26
326.636	1.14
327.009	1.18
327.382	1.17
327.754	1.25
328.127	1.19
328.499	1.26
328.872	1.2
329.244	1.29
329.616	1.17
329.989	1.23
330.361	1.24
330.733	1.23
331.106	1.12
331.478	1.28
331.85	1.18
332.222	1.19
332.594	1.23
332.966	1.23
333.338	1.34
333.71	1.28
334.082	1.33
334.454	1.26
334.826	1.23
335.197	1.26
335.569	1.35
335.941	1.27
336.312	1.26
336.684	1.28
337.056	1.21
337.427	1.31
337.799	1.31
338.17	1.22
338.542	1.25
338.913	1.31
339.284	1.33
339.656	1.32
340.027	1.25
340.398	1.34
340.769	1.29
341.141	1.48
341.512	1.31
341.883	1.33
342.254	1.32
342.625	1.38
342.996	1.32
343.367	1.29
343.738	1.35
344.108	1.23
344.479	1.32
344.85	1.25
345.221	1.3
345.591	1.19
345.962	1.32
346.333	1.28
346.703	1.29
347.074	1.27
347.444	1.24
347.815	1.28
348.185	1.38
348.556	1.26
348.926	1.24
349.296	1.27
349.666	1.29
350.037	1.24
350.407	1.3
350.777	1.24
351.147	1.34
351.517	1.28
351.887	1.29
352.257	1.3
352.627	1.26
352.997	1.28
353.367	1.35
353.737	1.44
354.106	1.39
354.476	1.35
354.846	1.45
355.216	1.41
355.585	1.51
355.955	1.33
356.324	1.32
356.694	1.36
357.063	1.39
357.433	1.31
357.802	1.48
358.171	1.46
358.541	1.42
358.91	1.36
359.279	1.46
359.648	1.42
360.017	1.52
360.387	1.56
360.756	1.36
361.125	1.43
361.494	1.57
361.863	1.36
362.231	1.48
362.6	1.55
362.969	1.58
363.338	1.48
363.707	1.59
364.075	1.6
364.444	1.38
364.813	1.5
365.181	1.49
365.55	1.59
365.918	1.53
366.287	1.51
366.655	1.61
367.024	1.61
367.392	1.6
367.76	1.48
368.128	1.5
368.497	1.47
368.865	1.5
369.233	1.48
369.601	1.51
369.969	1.57
370.337	1.61
370.705	1.51
371.073	1.52
371.441	1.39
371.809	1.37
372.177	1.51
372.544	1.57
372.912	1.64
373.28	1.46
373.647	1.56
374.015	1.53
374.383	1.8
374.75	1.6
375.118	1.49
375.485	1.5
375.853	1.6
376.22	1.52
376.587	1.5
376.955	1.7
377.322	1.6
377.689	1.56
378.056	1.54
378.423	1.4
378.79	1.44
379.157	1.63
379.524	1.64
379.891	1.48
380.258	1.51
380.625	1.68
380.992	1.53
381.359	1.48
381.726	1.7
382.092	1.5
382.459	1.57
382.826	1.53
383.192	1.51
383.559	1.55
383.925	1.72
384.292	1.55
384.658	1.63
385.025	1.56
385.391	1.86
385.757	1.62
386.123	1.68
386.49	1.51
386.856	1.67
387.222	1.61
387.588	1.54
387.954	1.61
388.32	1.71
388.686	1.64
389.052	1.55
389.418	1.59
389.784	1.47
390.15	1.64
390.515	1.49
390.881	1.73
391.247	1.49
391.613	1.66
391.978	1.6
392.344	1.64
392.709	1.69
393.075	1.53
393.44	1.58
393.806	1.59
394.171	1.59
394.536	1.51
394.902	1.57
395.267	1.53
395.632	1.5
395.997	1.44
396.362	1.47
396.727	1.6
397.092	1.49
397.457	1.53
397.822	1.48
398.187	1.65
398.552	1.59
398.917	1.69
399.282	1.51
399.646	1.46
400.011	1.83
400.376	1.4
400.74	1.42
401.105	1.56
401.47	1.57
401.834	1.56
402.199	1.48
402.563	1.43
402.927	1.5
403.292	1.65
403.656	1.75
404.02	1.65
404.384	1.69
404.749	1.56
405.113	1.54
405.477	1.58
405.841	1.61
406.205	1.47
406.569	1.65
406.933	1.6
407.296	1.42
407.66	1.49
408.024	1.52
408.388	1.8
408.752	1.71
409.115	1.71
409.479	1.56
409.842	1.47
410.206	1.42
410.569	1.64
410.933	1.73
411.296	1.46
411.66	1.43
412.023	1.37
412.386	1.44
412.749	1.39
413.113	1.62
413.476	1.47
413.839	1.6
414.202	1.49
414.565	1.38
414.928	1.39
415.291	1.36
415.654	1.41
416.017	1.46
416.38	1.4
416.742	1.45
417.105	1.38
417.468	1.38
417.83	1.42
418.193	1.55
418.556	1.37
418.918	1.31
419.281	1.49
419.643	1.54
420.005	1.48
420.368	1.5
420.73	1.35
421.092	1.5
421.455	1.51
421.817	1.35
422.179	1.42
422.541	1.46
422.903	1.53
423.265	1.56
423.627	1.39
423.989	1.45
424.351	1.44
424.713	1.44
425.075	1.38
425.436	1.38
425.798	1.37
426.16	1.44
426.521	1.38
426.883	1.57
427.245	1.5
427.606	1.47
427.967	1.3
428.329	1.41
428.69	1.48
429.052	1.32
429.413	1.51
429.774	1.47
430.135	1.44
430.497	1.5
430.858	1.41
431.219	1.42
431.58	1.31
431.941	1.37
432.302	1.34
432.663	1.43
433.024	1.32
433.384	1.42
433.745	1.3
434.106	1.5
434.467	1.41
434.827	1.43
435.188	1.4
435.548	1.36
435.909	1.31
436.269	1.46
436.63	1.29
436.99	1.4
437.351	1.3
437.711	1.35
438.071	1.29
438.431	1.34
438.792	1.3
439.152	1.31
439.512	1.3
439.872	1.24
440.232	1.33
440.592	1.3
440.952	1.32
441.312	1.27
441.671	1.23
442.031	1.32
442.391	1.21
442.751	1.24
443.11	1.24
443.47	1.21
443.83	1.22
444.189	1.18
444.549	1.22
444.908	1.2
445.267	1.25
445.627	1.18
445.986	1.2
446.345	1.2
446.705	1.16
447.064	1.18
447.423	1.18
447.782	1.16
448.141	1.16
448.5	1.09
448.859	1.12
449.218	1.14
449.577	1.16
449.936	1.13
450.295	1.12
450.653	1.11
451.012	1.1
451.371	1.11
451.729	1.1
452.088	1.11
452.447	1.1
452.805	1.08
453.163	1.09
453.522	1.06
453.88	1.03
454.239	1.06
454.597	1.01
454.955	0.98
455.313	1.01
455.671	1.01
456.029	0.99
456.388	0.96
456.746	0.99
457.104	0.95
457.461	0.94
457.819	0.94
458.177	0.92
458.535	0.91
458.893	0.9
459.25	0.9
459.608	0.88
459.966	0.87
460.323	0.84
460.681	0.84
461.038	0.82
461.396	0.82
461.753	0.81
462.111	0.81
462.468	0.78
462.825	0.78
463.182	0.76
463.54	0.75
463.897	0.76
464.254	0.75
464.611	0.74
464.968	0.72
465.325	0.72
465.682	0.7
466.039	0.69
466.395	0.68
466.752	0.69
467.109	0.66
467.466	0.66
467.822	0.67
468.179	0.65
468.535	0.64
468.892	0.62
469.248	0.62
469.605	0.61
469.961	0.59
470.318	0.6
470.674	0.59
471.03	0.57
471.386	0.57
471.743	0.54
472.099	0.56
472.455	0.54
472.811	0.53
473.167	0.53
473.523	0.51
473.879	0.51
474.235	0.51
474.59	0.49
474.946	0.48
475.302	0.48
475.657	0.47
476.013	0.47
476.369	0.45
476.724	0.46
477.08	0.45
477.435	0.44
477.791	0.43
478.146	0.42
478.501	0.42
478.857	0.42
479.212	0.41
479.567	0.4
479.922	0.39
480.277	0.38
480.632	0.38
480.987	0.38
481.342	0.37
481.697	0.36
482.052	0.35
482.407	0.35
482.762	0.35
483.116	0.34
483.471	0.33
483.826	0.32
484.18	0.33
484.535	0.31
484.89	0.31
485.244	0.31
485.598	0.31
485.953	0.3
486.307	0.3
486.661	0.29
487.016	0.28
487.37	0.28
487.724	0.27
488.078	0.28
488.432	0.27
488.786	0.27
489.14	0.26
489.494	0.26
489.848	0.25
490.202	0.25
490.556	0.25
490.91	0.25
491.263	0.24
491.617	0.24
491.971	0.24
492.324	0.23
492.678	0.24
493.031	0.24
493.385	0.23
493.738	0.22
494.091	0.22
494.445	0.22
494.798	0.22
495.151	0.21
495.504	0.22
495.857	0.21
496.21	0.22
496.564	0.2
496.916	0.21
497.269	0.19
497.622	0.2
497.975	0.2
498.328	0.21
498.681	0.19
499.033	0.19
499.386	0.2
499.739	0.19
500.091	0.18
500.444	0.18
500.796	0.19
501.149	0.18
501.501	0.17
501.854	0.18
502.206	0.18
502.558	0.18
502.91	0.18
503.263	0.18
503.615	0.17
503.967	0.17
504.319	0.18
504.671	0.18
505.023	0.17
505.375	0.16
505.726	0.16
506.078	0.17
506.43	0.16
506.782	0.16
507.133	0.16
507.485	0.16
507.837	0.17
508.188	0.17
508.54	0.17
508.891	0.17
509.243	0.16
509.594	0.16
509.945	0.17
510.296	0.16
510.648	0.16
510.999	0.16
511.35	0.16
511.701	0.16
512.052	0.16
512.403	0.16
512.754	0.16
513.105	0.15
513.456	0.15
513.807	0.15
514.157	0.16
514.508	0.16
514.859	0.15
515.209	0.15
515.56	0.16
515.91	0.16
516.261	0.16
516.611	0.15
516.962	0.15
517.312	0.15
517.662	0.15
518.013	0.16
518.363	0.16
518.713	0.15
519.063	0.16
519.413	0.15
519.763	0.16
520.113	0.15
520.463	0.16
520.813	0.16
521.163	0.16
521.512	0.15
521.862	0.16
522.212	0.15
522.562	0.16
522.911	0.16
523.261	0.16
523.61	0.15
523.96	0.15
524.309	0.16
524.658	0.16
525.008	0.16
525.357	0.16
525.706	0.16
526.056	0.15
526.405	0.15
526.754	0.15
527.103	0.15
527.452	0.15
527.801	0.16
528.15	0.15
528.499	0.16
528.847	0.16
529.196	0.17
529.545	0.17
529.893	0.17
530.242	0.16
530.591	0.17
530.939	0.16
531.288	0.16
531.636	0.16
531.985	0.17
532.333	0.16
532.681	0.17
533.029	0.17
533.378	0.16
533.726	0.16
534.074	0.17
534.422	0.16
534.77	0.17
535.118	0.16
535.466	0.16
535.814	0.16
536.162	0.17
536.509	0.16
536.857	0.16
537.205	0.17
537.552	0.17
537.9	0.17
538.248	0.16
538.595	0.17
538.943	0.17
539.29	0.16
539.637	0.16
539.985	0.16
540.332	0.16
540.679	0.16
541.026	0.16
541.373	0.17
541.721	0.16
542.068	0.16
542.415	0.16
542.762	0.16
543.108	0.16
543.455	0.15
543.802	0.16
544.149	0.16
544.496	0.17
544.842	0.16
545.189	0.16
545.535	0.15
545.882	0.16
546.228	0.16
546.575	0.15
546.921	0.15
547.267	0.15
547.614	0.16
547.96	0.16
548.306	0.15
548.652	0.15
548.998	0.16
549.344	0.15
549.69	0.16
550.036	0.15
550.382	0.16
550.728	0.16
551.074	0.16
551.42	0.17
551.765	0.17
552.111	0.16
552.457	0.16
552.802	0.16
553.148	0.16
553.493	0.16
553.839	0.16
554.184	0.17
554.529	0.15
554.875	0.17
555.22	0.16
555.565	0.17
555.91	0.16
556.255	0.17
556.6	0.17
556.945	0.16
557.29	0.16
557.635	0.16
557.98	0.16
558.325	0.17
558.67	0.16
559.014	0.17
559.359	0.17
559.704	0.16
560.048	0.16
560.393	0.16
560.737	0.16
561.082	0.16
561.426	0.15
561.77	0.16
562.115	0.15
562.459	0.16
562.803	0.17
563.147	0.16
563.491	0.17
563.835	0.17
564.179	0.16
564.523	0.16
564.867	0.16
565.211	0.16
565.555	0.16
565.899	0.16
566.242	0.16
566.586	0.15
566.93	0.16
567.273	0.16
567.617	0.17
567.96	0.17
568.304	0.16
568.647	0.17
568.99	0.17
569.334	0.18
569.677	0.17
570.02	0.18
570.363	0.17
570.706	0.16
571.049	0.16
571.392	0.17
571.735	0.16
572.078	0.17
572.421	0.17
572.764	0.17
573.106	0.16
573.449	0.17
573.792	0.16
574.134	0.17
574.477	0.17
574.819	0.16
575.162	0.16
575.504	0.16
575.847	0.16
576.189	0.16
576.531	0.16
576.873	0.16
577.215	0.17
577.558	0.16
577.9	0.15
578.242	0.16
578.584	0.16
578.926	0.16
579.267	0.16
579.609	0.16
579.951	0.16
580.293	0.16
580.634	0.17
580.976	0.17
581.318	0.16
581.659	0.16
582.001	0.17
582.342	0.17
582.683	0.17
583.025	0.16
583.366	0.15
583.707	0.16
584.049	0.16
584.39	0.17
584.731	0.16
585.072	0.16
585.413	0.16
585.754	0.17
586.095	0.17
586.435	0.17
586.776	0.17
587.117	0.17
587.458	0.17
587.798	0.16
588.139	0.17
588.48	0.15
588.82	0.16
589.161	0.16
589.501	0.16
589.841	0.16
590.182	0.16
590.522	0.16
590.862	0.16
591.202	0.15
591.542	0.16
591.882	0.16
592.222	0.16
592.562	0.16
592.902	0.15
593.242	0.16
593.582	0.16
593.922	0.16
594.261	0.16
594.601	0.16
594.941	0.16
595.28	0.16
595.62	0.16
595.959	0.15
596.299	0.16
596.638	0.15
596.977	0.15
597.317	0.17
597.656	0.16
597.995	0.15
598.334	0.16
598.673	0.16
599.012	0.16
599.351	0.17
599.69	0.17
600.029	0.17
600.368	0.17
600.707	0.17
601.046	0.17
601.384	0.17
601.723	0.16
602.061	0.16
602.4	0.17
602.738	0.17
603.077	0.16
603.415	0.16
603.754	0.16
604.092	0.16
604.43	0.16
604.768	0.16
605.107	0.16
605.445	0.16
605.783	0.15
606.121	0.15
606.459	0.16
606.796	0.16
607.134	0.15
607.472	0.15
607.81	0.16
608.148	0.15
608.485	0.16
608.823	0.16
609.16	0.16
609.498	0.15
609.835	0.16
610.173	0.15
610.51	0.15
610.847	0.16
611.185	0.16
611.522	0.15
611.859	0.16
612.196	0.16
612.533	0.17
612.87	0.16
613.207	0.16
613.544	0.16
613.881	0.17
614.217	0.16
614.554	0.16
614.891	0.16
615.228	0.16
615.564	0.16
615.901	0.17
616.237	0.17
616.574	0.16
616.91	0.17
617.246	0.16
617.583	0.17
617.919	0.17
618.255	0.16
618.591	0.16
618.927	0.16
619.263	0.17
619.599	0.17
619.935	0.17
620.271	0.17
620.607	0.16
620.943	0.17
621.279	0.17
621.614	0.17
621.95	0.16
622.286	0.15
622.621	0.16
622.957	0.15
623.292	0.16
623.627	0.15
623.963	0.15
624.298	0.16
624.633	0.15
624.968	0.15
625.304	0.16
625.639	0.15
625.974	0.15
626.309	0.15
626.644	0.15
626.979	0.16
627.313	0.16
627.648	0.16
627.983	0.16
628.318	0.15
628.652	0.15
628.987	0.15
629.321	0.15
629.656	0.14
629.99	0.14
630.325	0.14
630.659	0.15
630.993	0.14
631.327	0.14
631.662	0.13
631.996	0.14
632.33	0.14
632.664	0.14
632.998	0.13
633.332	0.14
633.666	0.14
633.999	0.14
634.333	0.14
634.667	0.14
635.001	0.13
635.334	0.13
635.668	0.14
636.001	0.13
636.335	0.13
636.668	0.13
637.001	0.13
637.335	0.13
637.668	0.13
638.001	0.13
638.334	0.14
638.668	0.12
639.001	0.13
639.334	0.12
639.667	0.13
639.999	0.13
640.332	0.13
640.665	0.13
640.998	0.14
641.331	0.13
641.663	0.13
641.996	0.13
642.328	0.14
642.661	0.13
642.993	0.13
643.326	0.14
643.658	0.13
643.99	0.13
644.323	0.13
644.655	0.13
644.987	0.15
645.319	0.15
645.651	0.14
645.983	0.14
646.315	0.14
646.647	0.14
646.979	0.14
647.31	0.14
647.642	0.14
647.974	0.14
648.305	0.14
648.637	0.14
648.968	0.14
649.3	0.13
649.631	0.14
649.963	0.13
650.294	0.13
650.625	0.14
650.957	0.14
651.288	0.14
651.619	0.14
651.95	0.14
652.281	0.14
652.612	0.13
652.943	0.13
653.274	0.14
653.604	0.14
653.935	0.14
654.266	0.14
654.596	0.14
654.927	0.13
655.258	0.13
655.588	0.14
655.918	0.13
656.249	0.12
656.579	0.13
656.909	0.13
657.24	0.13
657.57	0.13
657.9	0.13
658.23	0.13
658.56	0.13
658.89	0.13
659.22	0.12
659.55	0.13
659.88	0.13
660.209	0.13
660.539	0.14
660.869	0.13
661.198	0.14
661.528	0.14
661.857	0.13
662.187	0.13
662.516	0.13
662.846	0.12
663.175	0.13
663.504	0.12
663.833	0.13
664.163	0.13
664.492	0.12
664.821	0.12
665.15	0.12
665.479	0.12
665.807	0.12
666.136	0.12
666.465	0.12
666.794	0.13
667.122	0.12
667.451	0.13
667.78	0.13
668.108	0.13
668.437	0.13
668.765	0.13
669.093	0.13
669.422	0.13
669.75	0.13
670.078	0.13
670.406	0.13
670.734	0.14
671.062	0.14
671.39	0.13
671.718	0.13
672.046	0.12
672.374	0.12
672.702	0.13
673.029	0.12
673.357	0.13
673.685	0.14
674.012	0.12
674.34	0.12
674.667	0.13
674.995	0.13
675.322	0.13
675.649	0.12
675.977	0.12
676.304	0.13
676.631	0.12
676.958	0.12
677.285	0.12
677.612	0.12
677.939	0.12
678.266	0.13
678.593	0.13
678.92	0.13
679.246	0.12
679.573	0.12
679.9	0.12
680.226	0.12
680.553	0.12
680.879	0.12
681.206	0.12
681.532	0.12
681.858	0.12
682.184	0.12
682.511	0.13
682.837	0.11
683.163	0.13
683.489	0.12
683.815	0.12
684.141	0.13
684.467	0.12
684.793	0.12
685.118	0.12
685.444	0.12
685.77	0.12
686.095	0.12
686.421	0.11
686.746	0.12
687.072	0.11
687.397	0.11
687.723	0.11
688.048	0.12
688.373	0.11
688.698	0.11
689.023	0.11
689.349	0.11
689.674	0.11
689.999	0.1
690.323	0.1
690.648	0.1
690.973	0.09
691.298	0.1
691.623	0.1
691.947	0.11
692.272	0.1
692.596	0.1
692.921	0.11
693.245	0.1
693.57	0.11
693.894	0.11
694.218	0.11
694.543	0.11
694.867	0.11
695.191	0.11
695.515	0.11
695.839	0.11
696.163	0.11
696.487	0.11
696.811	0.11
697.135	0.11
697.458	0.11
697.782	0.11
698.106	0.11
698.429	0.11
698.753	0.11
699.076	0.1
699.4	0.1
699.723	0.1
700.046	0.09
700.37	0.11
700.693	0.11
701.016	0.1
701.339	0.11
701.662	0.11
701.985	0.11
702.308	0.11
702.631	0.1
702.954	0.1
703.277	0.1
703.599	0.1
703.922	0.09
704.245	0.09
704.567	0.09
704.89	0.1
705.212	0.1
705.535	0.09
705.857	0.09
706.179	0.09
706.502	0.08
706.824	0.09
707.146	0.09
707.468	0.1
707.79	0.09
708.112	0.1
708.434	0.09
708.756	0.1
709.078	0.09
709.399	0.09
709.721	0.09
710.043	0.1
710.364	0.09
710.686	0.09
711.007	0.09
711.329	0.1
711.65	0.09
711.972	0.09
712.293	0.1
712.614	0.1
712.935	0.1
713.256	0.1
713.577	0.1
713.898	0.1
714.219	0.1
714.54	0.09
714.861	0.09
715.182	0.1
715.503	0.1
715.823	0.1
716.144	0.09
716.464	0.09
716.785	0.09
717.105	0.09
717.426	0.09
717.746	0.09
718.066	0.09
718.387	0.09
718.707	0.08
719.027	0.09
719.347	0.08
719.667	0.09
719.987	0.08
720.307	0.08
720.627	0.08
720.947	0.08
721.266	0.08
721.586	0.07
721.906	0.08
722.225	0.08
722.545	0.08
722.864	0.08
723.184	0.09
723.503	0.07
723.823	0.09
724.142	0.07
