Data from 12-12-AQDScycling_Absorbance__427__00427.txt Node

Date: Tue Dec 12 12:43:29 EST 2023
User: kyuminlee
Spectrometer: FLMS00943
Trigger mode: 0
Integration Time (sec): 1.000000E-1
Scans to average: 1
Electric dark correction enabled: true
Nonlinearity correction enabled: false
Boxcar width: 0
XAxis mode: Wavelengths
Number of Pixels in Spectrum: 2048
>>>>>Begin Spectral Data<<<<<
179.651	-0.12
180.037	-0.12
180.424	-0.12
180.81	-0.24
181.197	0.28
181.583	-0.21
181.97	-0.03
182.356	-0
182.743	-0.88
183.129	0.31
183.515	-0
183.901	-2.54
184.288	0.56
184.674	-0
185.06	-0.98
185.446	-0
185.832	-1.35
186.218	-0
186.604	0.38
186.99	-0
187.376	-0
187.762	-0.2
188.148	0.42
188.534	-0.15
188.92	0.04
189.305	0.08
189.691	0.04
190.077	0.24
190.463	0.14
190.848	0.08
191.234	0.12
191.619	0.07
192.005	0.13
192.391	0.12
192.776	0.14
193.161	0.09
193.547	0.49
193.932	0.18
194.318	0.01
194.703	0.12
195.088	0.08
195.473	0.17
195.859	0.11
196.244	0.19
196.629	0.08
197.014	0.1
197.399	0.1
197.784	0.05
198.169	0.03
198.554	0.23
198.939	0.11
199.324	0.19
199.709	0.16
200.094	0.01
200.478	0.1
200.863	0.26
201.248	0.14
201.633	0
202.017	0.21
202.402	0.27
202.787	0.09
203.171	0.05
203.556	0.09
203.94	0.11
204.325	0.18
204.709	0.19
205.093	0.13
205.478	0.06
205.862	0.21
206.246	0.24
206.631	0.2
207.015	0.19
207.399	0.22
207.783	0.13
208.167	0.22
208.551	0.22
208.935	0.17
209.319	0.09
209.703	0.26
210.087	0.33
210.471	0.16
210.855	0.14
211.239	0.18
211.623	0.32
212.007	0.27
212.39	0.19
212.774	0.08
213.158	0.08
213.541	0.16
213.925	0.22
214.309	0.3
214.692	0.21
215.076	0.24
215.459	0.1
215.842	0.24
216.226	0.23
216.609	0.34
216.993	0.16
217.376	0.45
217.759	0.17
218.142	0.35
218.525	0.34
218.909	0.36
219.292	0.3
219.675	0.36
220.058	0.45
220.441	0.39
220.824	0.49
221.207	0.64
221.59	0.48
221.973	0.43
222.355	0.58
222.738	0.63
223.121	0.66
223.504	0.51
223.886	0.75
224.269	0.9
224.652	0.76
225.034	0.84
225.417	0.66
225.799	0.74
226.182	0.86
226.564	0.73
226.947	0.74
227.329	0.78
227.711	1.15
228.094	0.92
228.476	0.95
228.858	0.91
229.24	0.77
229.623	0.86
230.005	0.87
230.387	0.8
230.769	0.9
231.151	0.98
231.533	0.93
231.915	0.92
232.297	1.03
232.679	0.95
233.061	1.11
233.442	1.05
233.824	0.97
234.206	1.07
234.588	1.12
234.969	1.01
235.351	1.08
235.733	0.92
236.114	1.1
236.496	1.02
236.877	1.02
237.259	0.98
237.64	1.06
238.022	0.96
238.403	0.9
238.784	1.03
239.165	1.06
239.547	1.1
239.928	1.02
240.309	1.18
240.69	1.04
241.071	1.05
241.452	1.09
241.834	1.02
242.215	1.04
242.595	1.04
242.976	1.09
243.357	1.05
243.738	1.2
244.119	1.2
244.5	1.2
244.881	1.29
245.261	1.13
245.642	1.13
246.023	1.3
246.403	1.18
246.784	1.27
247.164	1.29
247.545	1.25
247.925	1.34
248.306	1.32
248.686	1.53
249.067	1.27
249.447	1.43
249.827	1.44
250.207	1.4
250.588	1.28
250.968	1.42
251.348	1.34
251.728	1.32
252.108	1.28
252.488	1.3
252.868	1.49
253.248	1.3
253.628	1.4
254.008	1.44
254.388	1.24
254.768	1.29
255.147	1.34
255.527	1.39
255.907	1.36
256.287	1.4
256.666	1.34
257.046	1.48
257.425	1.38
257.805	1.37
258.184	1.25
258.564	1.44
258.943	1.33
259.323	1.42
259.702	1.48
260.081	1.53
260.461	1.35
260.84	1.53
261.219	1.82
261.598	1.62
261.977	1.48
262.356	1.51
262.736	1.49
263.115	1.41
263.494	1.49
263.873	1.49
264.251	1.5
264.63	1.47
265.009	1.41
265.388	1.41
265.767	1.45
266.145	1.47
266.524	1.64
266.903	1.46
267.281	1.42
267.66	1.47
268.039	1.53
268.417	1.36
268.796	1.45
269.174	1.44
269.552	1.22
269.931	1.42
270.309	1.5
270.687	1.57
271.066	1.61
271.444	1.42
271.822	1.64
272.2	1.56
272.578	1.41
272.956	1.42
273.334	1.47
273.712	1.39
274.09	1.4
274.468	1.36
274.846	1.3
275.224	1.34
275.602	1.44
275.98	1.63
276.357	1.36
276.735	1.36
277.113	1.29
277.49	1.27
277.868	1.25
278.246	1.49
278.623	1.41
279.001	1.35
279.378	1.32
279.756	1.39
280.133	1.43
280.51	1.43
280.888	1.57
281.265	1.35
281.642	1.57
282.019	1.65
282.396	1.45
282.773	1.48
283.151	1.5
283.528	1.56
283.905	1.42
284.282	1.44
284.659	1.42
285.035	1.41
285.412	1.31
285.789	1.53
286.166	1.41
286.543	1.32
286.919	1.5
287.296	1.37
287.673	1.78
288.049	1.54
288.426	1.62
288.802	1.49
289.179	1.42
289.555	1.53
289.932	1.5
290.308	1.39
290.684	1.45
291.061	1.39
291.437	1.71
291.813	1.3
292.189	1.28
292.565	1.37
292.942	1.36
293.318	1.46
293.694	1.4
294.07	1.32
294.446	1.44
294.822	1.49
295.197	1.41
295.573	1.49
295.949	1.42
296.325	1.45
296.701	1.63
297.076	1.52
297.452	1.58
297.828	1.37
298.203	1.53
298.579	1.57
298.954	1.43
299.33	1.36
299.705	1.44
300.081	1.45
300.456	1.35
300.831	1.42
301.206	1.52
301.582	1.49
301.957	1.4
302.332	1.48
302.707	1.45
303.082	1.46
303.457	1.46
303.832	1.36
304.207	1.5
304.582	1.51
304.957	1.5
305.332	1.44
305.707	1.46
306.082	1.53
306.456	1.52
306.831	1.36
307.206	1.4
307.58	1.58
307.955	1.5
308.33	1.46
308.704	1.44
309.079	1.32
309.453	1.45
309.828	1.5
310.202	1.47
310.576	1.41
310.951	1.59
311.325	1.54
311.699	1.56
312.073	1.38
312.447	1.58
312.821	1.45
313.196	1.44
313.57	1.39
313.944	1.39
314.317	1.39
314.691	1.51
315.065	1.47
315.439	1.51
315.813	1.42
316.187	1.4
316.56	1.53
316.934	1.42
317.308	1.39
317.681	1.43
318.055	1.4
318.428	1.5
318.802	1.44
319.175	1.45
319.549	1.45
319.922	1.33
320.295	1.33
320.669	1.57
321.042	1.41
321.415	1.79
321.788	1.53
322.162	1.39
322.535	1.51
322.908	1.58
323.281	1.47
323.654	1.59
324.027	1.49
324.4	1.47
324.773	1.48
325.145	1.61
325.518	1.42
325.891	1.5
326.264	1.92
326.636	1.47
327.009	1.5
327.382	1.43
327.754	1.63
328.127	1.5
328.499	1.48
328.872	1.53
329.244	1.58
329.616	1.39
329.989	1.46
330.361	1.52
330.733	1.5
331.106	1.4
331.478	1.75
331.85	1.44
332.222	1.44
332.594	1.56
332.966	1.58
333.338	1.56
333.71	1.62
334.082	1.47
334.454	1.55
334.826	1.56
335.197	1.54
335.569	1.48
335.941	1.29
336.312	1.49
336.684	1.44
337.056	1.47
337.427	1.51
337.799	1.58
338.17	1.69
338.542	1.35
338.913	1.6
339.284	1.49
339.656	1.5
340.027	1.49
340.398	1.6
340.769	1.42
341.141	1.68
341.512	1.49
341.883	1.61
342.254	1.53
342.625	1.55
342.996	1.44
343.367	1.52
343.738	1.56
344.108	1.4
344.479	1.72
344.85	1.51
345.221	1.46
345.591	1.37
345.962	1.34
346.333	1.4
346.703	1.32
347.074	1.29
347.444	1.27
347.815	1.32
348.185	1.35
348.556	1.36
348.926	1.37
349.296	1.33
349.666	1.5
350.037	1.26
350.407	1.3
350.777	1.31
351.147	1.32
351.517	1.45
351.887	1.32
352.257	1.49
352.627	1.29
352.997	1.29
353.367	1.29
353.737	1.36
354.106	1.36
354.476	1.37
354.846	1.36
355.216	1.31
355.585	1.37
355.955	1.33
356.324	1.4
356.694	1.34
357.063	1.35
357.433	1.34
357.802	1.28
358.171	1.32
358.541	1.33
358.91	1.31
359.279	1.28
359.648	1.35
360.017	1.27
360.387	1.33
360.756	1.27
361.125	1.35
361.494	1.3
361.863	1.29
362.231	1.26
362.6	1.27
362.969	1.34
363.338	1.25
363.707	1.33
364.075	1.3
364.444	1.22
364.813	1.22
365.181	1.21
365.55	1.27
365.918	1.36
366.287	1.32
366.655	1.35
367.024	1.28
367.392	1.31
367.76	1.24
368.128	1.24
368.497	1.22
368.865	1.31
369.233	1.22
369.601	1.24
369.969	1.17
370.337	1.29
370.705	1.22
371.073	1.3
371.441	1.26
371.809	1.2
372.177	1.33
372.544	1.25
372.912	1.37
373.28	1.27
373.647	1.24
374.015	1.35
374.383	1.38
374.75	1.32
375.118	1.36
375.485	1.3
375.853	1.26
376.22	1.23
376.587	1.25
376.955	1.33
377.322	1.31
377.689	1.27
378.056	1.26
378.423	1.25
378.79	1.33
379.157	1.33
379.524	1.29
379.891	1.27
380.258	1.31
380.625	1.36
380.992	1.27
381.359	1.34
381.726	1.41
382.092	1.29
382.459	1.33
382.826	1.37
383.192	1.33
383.559	1.37
383.925	1.4
384.292	1.31
384.658	1.34
385.025	1.46
385.391	1.52
385.757	1.4
386.123	1.41
386.49	1.35
386.856	1.45
387.222	1.54
387.588	1.39
387.954	1.56
388.32	1.56
388.686	1.53
389.052	1.37
389.418	1.36
389.784	1.44
390.15	1.63
390.515	1.35
390.881	1.44
391.247	1.37
391.613	1.51
391.978	1.35
392.344	1.48
392.709	1.43
393.075	1.42
393.44	1.54
393.806	1.46
394.171	1.43
394.536	1.38
394.902	1.49
395.267	1.32
395.632	1.35
395.997	1.35
396.362	1.33
396.727	1.46
397.092	1.34
397.457	1.48
397.822	1.44
398.187	1.43
398.552	1.45
398.917	1.44
399.282	1.28
399.646	1.4
400.011	1.47
400.376	1.27
400.74	1.31
401.105	1.31
401.47	1.34
401.834	1.36
402.199	1.32
402.563	1.26
402.927	1.32
403.292	1.41
403.656	1.36
404.02	1.34
404.384	1.39
404.749	1.26
405.113	1.29
405.477	1.33
405.841	1.31
406.205	1.31
406.569	1.25
406.933	1.25
407.296	1.29
407.66	1.23
408.024	1.22
408.388	1.27
408.752	1.19
409.115	1.24
409.479	1.22
409.842	1.16
410.206	1.17
410.569	1.15
410.933	1.14
411.296	1.13
411.66	1.2
412.023	1.11
412.386	1.12
412.749	1.12
413.113	1.19
413.476	1.11
413.839	1.11
414.202	1.12
414.565	1.1
414.928	1.12
415.291	1.1
415.654	1.08
416.017	1.15
416.38	1.04
416.742	1.08
417.105	1.08
417.468	1.08
417.83	1.07
418.193	1.13
418.556	1.07
418.918	1.03
419.281	1.02
419.643	1.07
420.005	1.02
420.368	1.06
420.73	1.01
421.092	1.09
421.455	1.12
421.817	0.97
422.179	1.03
422.541	1.02
422.903	1.07
423.265	1.08
423.627	1.01
423.989	1
424.351	1.03
424.713	0.99
425.075	1.01
425.436	0.98
425.798	1.01
426.16	1.01
426.521	1
426.883	1.08
427.245	1.04
427.606	1
427.967	0.98
428.329	0.98
428.69	1.01
429.052	0.97
429.413	1
429.774	0.97
430.135	0.98
430.497	0.98
430.858	0.99
431.219	1
431.58	0.96
431.941	0.93
432.302	0.97
432.663	0.96
433.024	1
433.384	0.98
433.745	0.93
434.106	0.95
434.467	0.96
434.827	0.96
435.188	0.94
435.548	0.98
435.909	0.95
436.269	0.94
436.63	0.9
436.99	0.92
437.351	0.94
437.711	0.93
438.071	0.88
438.431	0.91
438.792	0.92
439.152	0.91
439.512	0.89
439.872	0.88
440.232	0.89
440.592	0.92
440.952	0.88
441.312	0.86
441.671	0.87
442.031	0.86
442.391	0.85
442.751	0.84
443.11	0.82
443.47	0.83
443.83	0.8
444.189	0.84
444.549	0.81
444.908	0.83
445.267	0.81
445.627	0.82
445.986	0.8
446.345	0.79
446.705	0.8
447.064	0.79
447.423	0.78
447.782	0.79
448.141	0.76
448.5	0.75
448.859	0.78
449.218	0.76
449.577	0.79
449.936	0.75
450.295	0.75
450.653	0.73
451.012	0.75
451.371	0.75
451.729	0.73
452.088	0.73
452.447	0.73
452.805	0.73
453.163	0.72
453.522	0.73
453.88	0.7
454.239	0.71
454.597	0.67
454.955	0.68
455.313	0.68
455.671	0.68
456.029	0.67
456.388	0.67
456.746	0.67
457.104	0.66
457.461	0.64
457.819	0.63
458.177	0.63
458.535	0.62
458.893	0.62
459.25	0.62
459.608	0.6
459.966	0.6
460.323	0.58
460.681	0.57
461.038	0.57
461.396	0.56
461.753	0.56
462.111	0.56
462.468	0.54
462.825	0.55
463.182	0.53
463.54	0.53
463.897	0.53
464.254	0.53
464.611	0.52
464.968	0.51
465.325	0.5
465.682	0.5
466.039	0.5
466.395	0.48
466.752	0.48
467.109	0.48
467.466	0.47
467.822	0.47
468.179	0.46
468.535	0.45
468.892	0.44
469.248	0.43
469.605	0.43
469.961	0.43
470.318	0.44
470.674	0.43
471.03	0.42
471.386	0.42
471.743	0.41
472.099	0.4
472.455	0.4
472.811	0.4
473.167	0.4
473.523	0.38
473.879	0.38
474.235	0.37
474.59	0.37
474.946	0.36
475.302	0.36
475.657	0.34
476.013	0.35
476.369	0.34
476.724	0.34
477.08	0.34
477.435	0.32
477.791	0.33
478.146	0.33
478.501	0.32
478.857	0.32
479.212	0.32
479.567	0.31
479.922	0.3
480.277	0.3
480.632	0.3
480.987	0.3
481.342	0.3
481.697	0.29
482.052	0.28
482.407	0.28
482.762	0.28
483.116	0.27
483.471	0.26
483.826	0.26
484.18	0.26
484.535	0.25
484.89	0.25
485.244	0.26
485.598	0.26
485.953	0.25
486.307	0.25
486.661	0.25
487.016	0.24
487.37	0.24
487.724	0.24
488.078	0.24
488.432	0.23
488.786	0.23
489.14	0.23
489.494	0.22
489.848	0.22
490.202	0.22
490.556	0.22
490.91	0.22
491.263	0.21
491.617	0.21
491.971	0.2
492.324	0.21
492.678	0.21
493.031	0.21
493.385	0.2
493.738	0.2
494.091	0.2
494.445	0.2
494.798	0.2
495.151	0.19
495.504	0.19
495.857	0.19
496.21	0.19
496.564	0.19
496.916	0.19
497.269	0.18
497.622	0.19
497.975	0.19
498.328	0.19
498.681	0.18
499.033	0.18
499.386	0.18
499.739	0.18
500.091	0.18
500.444	0.18
500.796	0.17
501.149	0.17
501.501	0.18
501.854	0.18
502.206	0.17
502.558	0.18
502.91	0.18
503.263	0.17
503.615	0.18
503.967	0.17
504.319	0.17
504.671	0.17
505.023	0.16
505.375	0.15
505.726	0.16
506.078	0.16
506.43	0.16
506.782	0.16
507.133	0.16
507.485	0.17
507.837	0.17
508.188	0.17
508.54	0.17
508.891	0.18
509.243	0.16
509.594	0.16
509.945	0.16
510.296	0.16
510.648	0.17
510.999	0.15
511.35	0.16
511.701	0.16
512.052	0.17
512.403	0.16
512.754	0.16
513.105	0.16
513.456	0.16
513.807	0.15
514.157	0.16
514.508	0.16
514.859	0.15
515.209	0.16
515.56	0.16
515.91	0.16
516.261	0.17
516.611	0.16
516.962	0.16
517.312	0.16
517.662	0.16
518.013	0.16
518.363	0.16
518.713	0.16
519.063	0.16
519.413	0.16
519.763	0.16
520.113	0.16
520.463	0.17
520.813	0.16
521.163	0.16
521.512	0.16
521.862	0.16
522.212	0.16
522.562	0.16
522.911	0.16
523.261	0.16
523.61	0.16
523.96	0.15
524.309	0.16
524.658	0.16
525.008	0.16
525.357	0.15
525.706	0.17
526.056	0.16
526.405	0.16
526.754	0.16
527.103	0.16
527.452	0.16
527.801	0.16
528.15	0.16
528.499	0.16
528.847	0.16
529.196	0.17
529.545	0.17
529.893	0.17
530.242	0.16
530.591	0.17
530.939	0.17
531.288	0.17
531.636	0.16
531.985	0.17
532.333	0.17
532.681	0.16
533.029	0.17
533.378	0.17
533.726	0.17
534.074	0.17
534.422	0.16
534.77	0.17
535.118	0.17
535.466	0.17
535.814	0.17
536.162	0.17
536.509	0.17
536.857	0.17
537.205	0.18
537.552	0.17
537.9	0.17
538.248	0.16
538.595	0.17
538.943	0.17
539.29	0.16
539.637	0.18
539.985	0.17
540.332	0.17
540.679	0.17
541.026	0.16
541.373	0.17
541.721	0.16
542.068	0.17
542.415	0.17
542.762	0.16
543.108	0.16
543.455	0.16
543.802	0.16
544.149	0.16
544.496	0.16
544.842	0.16
545.189	0.16
545.535	0.16
545.882	0.16
546.228	0.16
546.575	0.16
546.921	0.16
547.267	0.16
547.614	0.17
547.96	0.17
548.306	0.16
548.652	0.16
548.998	0.17
549.344	0.17
549.69	0.16
550.036	0.16
550.382	0.16
550.728	0.17
551.074	0.17
551.42	0.17
551.765	0.17
552.111	0.17
552.457	0.17
552.802	0.17
553.148	0.16
553.493	0.17
553.839	0.17
554.184	0.17
554.529	0.16
554.875	0.17
555.22	0.17
555.565	0.17
555.91	0.17
556.255	0.17
556.6	0.17
556.945	0.17
557.29	0.17
557.635	0.17
557.98	0.17
558.325	0.17
558.67	0.17
559.014	0.17
559.359	0.17
559.704	0.17
560.048	0.17
560.393	0.17
560.737	0.16
561.082	0.18
561.426	0.17
561.77	0.17
562.115	0.16
562.459	0.16
562.803	0.16
563.147	0.17
563.491	0.17
563.835	0.18
564.179	0.17
564.523	0.16
564.867	0.17
565.211	0.17
565.555	0.17
565.899	0.17
566.242	0.17
566.586	0.17
566.93	0.17
567.273	0.17
567.617	0.18
567.96	0.17
568.304	0.17
568.647	0.17
568.99	0.18
569.334	0.18
569.677	0.17
570.02	0.18
570.363	0.17
570.706	0.17
571.049	0.17
571.392	0.18
571.735	0.18
572.078	0.17
572.421	0.18
572.764	0.17
573.106	0.17
573.449	0.17
573.792	0.17
574.134	0.17
574.477	0.17
574.819	0.17
575.162	0.17
575.504	0.17
575.847	0.17
576.189	0.17
576.531	0.17
576.873	0.17
577.215	0.17
577.558	0.18
577.9	0.18
578.242	0.18
578.584	0.17
578.926	0.17
579.267	0.18
579.609	0.17
579.951	0.17
580.293	0.17
580.634	0.18
580.976	0.18
581.318	0.17
581.659	0.17
582.001	0.17
582.342	0.16
582.683	0.17
583.025	0.17
583.366	0.17
583.707	0.17
584.049	0.16
584.39	0.17
584.731	0.16
585.072	0.17
585.413	0.18
585.754	0.17
586.095	0.17
586.435	0.17
586.776	0.17
587.117	0.16
587.458	0.17
587.798	0.17
588.139	0.17
588.48	0.17
588.82	0.17
589.161	0.17
589.501	0.16
589.841	0.17
590.182	0.16
590.522	0.17
590.862	0.17
591.202	0.17
591.542	0.16
591.882	0.17
592.222	0.17
592.562	0.17
592.902	0.16
593.242	0.16
593.582	0.18
593.922	0.17
594.261	0.17
594.601	0.17
594.941	0.17
595.28	0.17
595.62	0.17
595.959	0.16
596.299	0.16
596.638	0.17
596.977	0.16
597.317	0.18
597.656	0.17
597.995	0.17
598.334	0.18
598.673	0.17
599.012	0.17
599.351	0.18
599.69	0.17
600.029	0.17
600.368	0.18
600.707	0.17
601.046	0.17
601.384	0.17
601.723	0.18
602.061	0.17
602.4	0.18
602.738	0.18
603.077	0.16
603.415	0.17
603.754	0.17
604.092	0.17
604.43	0.17
604.768	0.17
605.107	0.17
605.445	0.16
605.783	0.16
606.121	0.16
606.459	0.17
606.796	0.17
607.134	0.16
607.472	0.16
607.81	0.16
608.148	0.16
608.485	0.17
608.823	0.16
609.16	0.16
609.498	0.17
609.835	0.17
610.173	0.16
610.51	0.16
610.847	0.17
611.185	0.17
611.522	0.17
611.859	0.17
612.196	0.18
612.533	0.18
612.87	0.18
613.207	0.17
613.544	0.18
613.881	0.18
614.217	0.18
614.554	0.17
614.891	0.17
615.228	0.17
615.564	0.18
615.901	0.18
616.237	0.17
616.574	0.17
616.91	0.18
617.246	0.17
617.583	0.17
617.919	0.18
618.255	0.18
618.591	0.17
618.927	0.17
619.263	0.18
619.599	0.18
619.935	0.18
620.271	0.18
620.607	0.18
620.943	0.17
621.279	0.18
621.614	0.17
621.95	0.17
622.286	0.17
622.621	0.17
622.957	0.17
623.292	0.16
623.627	0.17
623.963	0.16
624.298	0.16
624.633	0.16
624.968	0.16
625.304	0.16
625.639	0.17
625.974	0.16
626.309	0.16
626.644	0.16
626.979	0.17
627.313	0.17
627.648	0.16
627.983	0.16
628.318	0.16
628.652	0.15
628.987	0.16
629.321	0.15
629.656	0.15
629.99	0.15
630.325	0.15
630.659	0.15
630.993	0.15
631.327	0.15
631.662	0.14
631.996	0.15
632.33	0.15
632.664	0.15
632.998	0.15
633.332	0.15
633.666	0.15
633.999	0.15
634.333	0.15
634.667	0.15
635.001	0.14
635.334	0.15
635.668	0.15
636.001	0.15
636.335	0.15
636.668	0.14
637.001	0.14
637.335	0.15
637.668	0.15
638.001	0.14
638.334	0.14
638.668	0.14
639.001	0.14
639.334	0.14
639.667	0.14
639.999	0.14
640.332	0.14
640.665	0.13
640.998	0.14
641.331	0.14
641.663	0.14
641.996	0.14
642.328	0.15
642.661	0.14
642.993	0.14
643.326	0.14
643.658	0.14
643.99	0.13
644.323	0.14
644.655	0.14
644.987	0.14
645.319	0.15
645.651	0.14
645.983	0.14
646.315	0.13
646.647	0.14
646.979	0.15
647.31	0.14
647.642	0.14
647.974	0.14
648.305	0.14
648.637	0.14
648.968	0.14
649.3	0.14
649.631	0.14
649.963	0.14
650.294	0.15
650.625	0.14
650.957	0.15
651.288	0.14
651.619	0.15
651.95	0.15
652.281	0.15
652.612	0.14
652.943	0.15
653.274	0.16
653.604	0.14
653.935	0.14
654.266	0.14
654.596	0.14
654.927	0.14
655.258	0.15
655.588	0.15
655.918	0.14
656.249	0.13
656.579	0.13
656.909	0.14
657.24	0.14
657.57	0.15
657.9	0.14
658.23	0.14
658.56	0.15
658.89	0.15
659.22	0.14
659.55	0.14
659.88	0.14
660.209	0.14
660.539	0.15
660.869	0.14
661.198	0.14
661.528	0.14
661.857	0.14
662.187	0.15
662.516	0.14
662.846	0.14
663.175	0.13
663.504	0.14
663.833	0.14
664.163	0.14
664.492	0.14
664.821	0.14
665.15	0.14
665.479	0.14
665.807	0.13
666.136	0.14
666.465	0.14
666.794	0.13
667.122	0.13
667.451	0.13
667.78	0.13
668.108	0.14
668.437	0.13
668.765	0.14
669.093	0.14
669.422	0.13
669.75	0.13
670.078	0.13
670.406	0.13
670.734	0.13
671.062	0.13
671.39	0.12
671.718	0.14
672.046	0.13
672.374	0.12
672.702	0.13
673.029	0.13
673.357	0.13
673.685	0.13
674.012	0.13
674.34	0.13
674.667	0.13
674.995	0.13
675.322	0.13
675.649	0.13
675.977	0.13
676.304	0.13
676.631	0.13
676.958	0.12
677.285	0.12
677.612	0.13
677.939	0.13
678.266	0.14
678.593	0.13
678.92	0.13
679.246	0.12
679.573	0.13
679.9	0.12
680.226	0.12
680.553	0.13
680.879	0.13
681.206	0.12
681.532	0.12
681.858	0.13
682.184	0.13
682.511	0.12
682.837	0.12
683.163	0.12
683.489	0.12
683.815	0.12
684.141	0.12
684.467	0.12
684.793	0.11
685.118	0.12
685.444	0.12
685.77	0.12
686.095	0.12
686.421	0.12
686.746	0.12
687.072	0.12
687.397	0.11
687.723	0.12
688.048	0.12
688.373	0.12
688.698	0.12
689.023	0.12
689.349	0.12
689.674	0.12
689.999	0.12
690.323	0.11
690.648	0.12
690.973	0.11
691.298	0.12
691.623	0.12
691.947	0.11
692.272	0.12
692.596	0.12
692.921	0.12
693.245	0.11
693.57	0.12
693.894	0.12
694.218	0.12
694.543	0.11
694.867	0.11
695.191	0.11
695.515	0.11
695.839	0.11
696.163	0.11
696.487	0.11
696.811	0.11
697.135	0.11
697.458	0.11
697.782	0.11
698.106	0.1
698.429	0.11
698.753	0.11
699.076	0.11
699.4	0.1
699.723	0.1
700.046	0.1
700.37	0.11
700.693	0.11
701.016	0.11
701.339	0.11
701.662	0.11
701.985	0.11
702.308	0.11
702.631	0.11
702.954	0.11
703.277	0.11
703.599	0.1
703.922	0.1
704.245	0.1
704.567	0.1
704.89	0.1
705.212	0.1
705.535	0.1
705.857	0.1
706.179	0.09
706.502	0.09
706.824	0.09
707.146	0.1
707.468	0.1
707.79	0.1
708.112	0.1
708.434	0.09
708.756	0.09
709.078	0.1
709.399	0.09
709.721	0.09
710.043	0.1
710.364	0.1
710.686	0.1
711.007	0.1
711.329	0.11
711.65	0.09
711.972	0.1
712.293	0.11
712.614	0.1
712.935	0.1
713.256	0.1
713.577	0.1
713.898	0.09
714.219	0.1
714.54	0.09
714.861	0.09
715.182	0.09
715.503	0.09
715.823	0.09
716.144	0.09
716.464	0.08
716.785	0.09
717.105	0.08
717.426	0.09
717.746	0.08
718.066	0.08
718.387	0.09
718.707	0.08
719.027	0.09
719.347	0.07
719.667	0.08
719.987	0.08
720.307	0.08
720.627	0.09
720.947	0.08
721.266	0.08
721.586	0.08
721.906	0.08
722.225	0.08
722.545	0.08
722.864	0.08
723.184	0.09
723.503	0.08
723.823	0.09
