Data from 12-12-AQDScycling_Absorbance__55__00055.txt Node

Date: Tue Dec 12 11:10:29 EST 2023
User: kyuminlee
Spectrometer: FLMS00943
Trigger mode: 0
Integration Time (sec): 1.000000E-1
Scans to average: 1
Electric dark correction enabled: true
Nonlinearity correction enabled: false
Boxcar width: 0
XAxis mode: Wavelengths
Number of Pixels in Spectrum: 2048
>>>>>Begin Spectral Data<<<<<
179.651	-0
180.037	-0
180.424	-0
180.81	-0
181.197	-0.01
181.583	-0
181.97	0.13
182.356	-0
182.743	12.7
183.129	-0
183.515	0.51
183.901	-0
184.288	0.27
184.674	0.6
185.06	-0.89
185.446	-0
185.832	-0.03
186.218	-0.02
186.604	-0
186.99	-0
187.376	-0
187.762	-0.16
188.148	0.62
188.534	0.06
188.92	0.13
189.305	0.22
189.691	0.22
190.077	0.13
190.463	0.22
190.848	0.1
191.234	0.01
191.619	0.09
192.005	0.19
192.391	0.18
192.776	0.11
193.161	0.12
193.547	0.05
193.932	0.16
194.318	0.07
194.703	0.38
195.088	0.26
195.473	0.19
195.859	0.06
196.244	0.2
196.629	0.12
197.014	0.33
197.399	0.03
197.784	0.12
198.169	0.17
198.554	0.2
198.939	0.22
199.324	0.19
199.709	0.1
200.094	0.14
200.478	0.24
200.863	0.35
201.248	0.13
201.633	0.14
202.017	0.16
202.402	0.33
202.787	0.22
203.171	0.17
203.556	0.29
203.94	0.22
204.325	0.21
204.709	0.25
205.093	0.09
205.478	0.1
205.862	0.18
206.246	0.23
206.631	0.06
207.015	0.12
207.399	0.2
207.783	0.21
208.167	0.11
208.551	0.25
208.935	0.31
209.319	0.15
209.703	0.15
210.087	0.21
210.471	0.08
210.855	0.19
211.239	0.27
211.623	0.27
212.007	0.36
212.39	0.19
212.774	0.26
213.158	0.21
213.541	0.26
213.925	0.25
214.309	0.33
214.692	0.39
215.076	0.27
215.459	0.19
215.842	0.3
216.226	0.21
216.609	0.34
216.993	0.22
217.376	0.64
217.759	0.19
218.142	0.25
218.525	0.54
218.909	0.38
219.292	0.43
219.675	0.51
220.058	0.43
220.441	0.49
220.824	0.44
221.207	0.59
221.59	0.53
221.973	0.51
222.355	0.68
222.738	0.74
223.121	0.58
223.504	0.6
223.886	0.59
224.269	0.64
224.652	0.67
225.034	0.88
225.417	0.75
225.799	0.77
226.182	1.01
226.564	0.88
226.947	0.79
227.329	0.86
227.711	0.96
228.094	0.81
228.476	0.89
228.858	0.88
229.24	0.88
229.623	0.99
230.005	0.79
230.387	0.97
230.769	0.93
231.151	0.9
231.533	1.02
231.915	1.01
232.297	1.06
232.679	1.11
233.061	0.95
233.442	1.11
233.824	1.08
234.206	1.14
234.588	1.06
234.969	1.06
235.351	0.97
235.733	1.18
236.114	1.18
236.496	1.17
236.877	1.16
237.259	1.27
237.64	1.05
238.022	1.04
238.403	0.97
238.784	1.03
239.165	1.02
239.547	1.14
239.928	1.07
240.309	1.32
240.69	1.02
241.071	1.15
241.452	1.16
241.834	1.04
242.215	1.08
242.595	1.07
242.976	1.2
243.357	1.23
243.738	1.04
244.119	1.28
244.5	1.26
244.881	1.33
245.261	1.18
245.642	1.28
246.023	1.19
246.403	1.15
246.784	1.26
247.164	1.27
247.545	1.26
247.925	1.3
248.306	1.27
248.686	1.49
249.067	1.28
249.447	1.46
249.827	1.74
250.207	1.4
250.588	1.35
250.968	1.48
251.348	1.41
251.728	1.47
252.108	1.36
252.488	1.42
252.868	1.43
253.248	1.51
253.628	1.47
254.008	1.6
254.388	1.45
254.768	1.32
255.147	1.34
255.527	1.45
255.907	1.38
256.287	1.38
256.666	1.41
257.046	1.64
257.425	1.61
257.805	1.29
258.184	1.47
258.564	1.4
258.943	1.42
259.323	1.74
259.702	1.46
260.081	1.44
260.461	1.53
260.84	1.48
261.219	1.46
261.598	1.51
261.977	1.43
262.356	1.63
262.736	1.55
263.115	1.63
263.494	1.42
263.873	1.5
264.251	1.55
264.63	1.45
265.009	1.41
265.388	1.46
265.767	1.37
266.145	1.42
266.524	1.4
266.903	1.39
267.281	1.45
267.66	1.47
268.039	1.46
268.417	1.35
268.796	1.49
269.174	1.38
269.552	1.4
269.931	1.36
270.309	1.41
270.687	1.61
271.066	1.52
271.444	1.48
271.822	1.61
272.2	1.42
272.578	1.52
272.956	1.5
273.334	1.31
273.712	1.48
274.09	1.52
274.468	1.37
274.846	1.28
275.224	1.37
275.602	1.48
275.98	1.8
276.357	1.49
276.735	1.42
277.113	1.47
277.49	1.51
277.868	1.28
278.246	1.51
278.623	1.38
279.001	1.38
279.378	1.4
279.756	1.58
280.133	1.66
280.51	1.4
280.888	1.5
281.265	1.45
281.642	1.5
282.019	1.76
282.396	1.7
282.773	1.54
283.151	1.49
283.528	1.49
283.905	1.42
284.282	1.57
284.659	1.51
285.035	1.39
285.412	1.3
285.789	1.39
286.166	1.49
286.543	1.61
286.919	1.46
287.296	1.38
287.673	1.62
288.049	1.68
288.426	1.59
288.802	1.47
289.179	1.46
289.555	1.59
289.932	1.51
290.308	1.4
290.684	1.48
291.061	1.47
291.437	1.72
291.813	1.43
292.189	1.32
292.565	1.36
292.942	1.4
293.318	1.4
293.694	1.52
294.07	1.44
294.446	1.4
294.822	1.68
295.197	1.53
295.573	1.42
295.949	1.44
296.325	1.46
296.701	1.67
297.076	1.68
297.452	1.55
297.828	1.48
298.203	1.59
298.579	1.44
298.954	1.57
299.33	1.49
299.705	1.5
300.081	1.5
300.456	1.53
300.831	1.5
301.206	1.42
301.582	1.5
301.957	1.51
302.332	1.58
302.707	1.45
303.082	1.48
303.457	1.41
303.832	1.43
304.207	1.43
304.582	1.42
304.957	1.44
305.332	1.52
305.707	1.55
306.082	1.51
306.456	1.56
306.831	1.39
307.206	1.43
307.58	1.48
307.955	1.36
308.33	1.49
308.704	1.36
309.079	1.42
309.453	1.53
309.828	1.46
310.202	1.47
310.576	1.41
310.951	1.54
311.325	1.42
311.699	1.39
312.073	1.36
312.447	1.46
312.821	1.36
313.196	1.46
313.57	1.28
313.944	1.37
314.317	1.35
314.691	1.46
315.065	1.47
315.439	1.35
315.813	1.5
316.187	1.38
316.56	1.46
316.934	1.42
317.308	1.41
317.681	1.47
318.055	1.42
318.428	1.4
318.802	1.42
319.175	1.51
319.549	1.59
319.922	1.33
320.295	1.53
320.669	1.49
321.042	1.42
321.415	1.69
321.788	1.42
322.162	1.35
322.535	1.4
322.908	1.4
323.281	1.45
323.654	1.65
324.027	1.43
324.4	1.71
324.773	1.53
325.145	1.48
325.518	1.35
325.891	1.46
326.264	1.51
326.636	1.42
327.009	1.45
327.382	1.35
327.754	1.43
328.127	1.45
328.499	1.46
328.872	1.39
329.244	1.47
329.616	1.46
329.989	1.49
330.361	1.53
330.733	1.32
331.106	1.43
331.478	1.57
331.85	1.48
332.222	1.43
332.594	1.53
332.966	1.47
333.338	1.62
333.71	1.58
334.082	1.71
334.454	1.5
334.826	1.49
335.197	1.55
335.569	1.49
335.941	1.43
336.312	1.54
336.684	1.39
337.056	1.43
337.427	1.58
337.799	1.54
338.17	1.53
338.542	1.47
338.913	1.49
339.284	1.5
339.656	1.56
340.027	1.55
340.398	1.5
340.769	1.51
341.141	1.48
341.512	1.45
341.883	1.5
342.254	1.53
342.625	1.46
342.996	1.58
343.367	1.5
343.738	1.48
344.108	1.35
344.479	1.51
344.85	1.35
345.221	1.61
345.591	1.34
345.962	1.43
346.333	1.46
346.703	1.32
347.074	1.34
347.444	1.34
347.815	1.32
348.185	1.45
348.556	1.33
348.926	1.45
349.296	1.28
349.666	1.34
350.037	1.25
350.407	1.31
350.777	1.36
351.147	1.4
351.517	1.4
351.887	1.3
352.257	1.43
352.627	1.34
352.997	1.29
353.367	1.39
353.737	1.42
354.106	1.39
354.476	1.31
354.846	1.42
355.216	1.39
355.585	1.49
355.955	1.33
356.324	1.35
356.694	1.37
357.063	1.31
357.433	1.33
357.802	1.33
358.171	1.4
358.541	1.37
358.91	1.43
359.279	1.37
359.648	1.31
360.017	1.43
360.387	1.4
360.756	1.23
361.125	1.37
361.494	1.39
361.863	1.25
362.231	1.32
362.6	1.29
362.969	1.31
363.338	1.26
363.707	1.38
364.075	1.39
364.444	1.24
364.813	1.31
365.181	1.27
365.55	1.39
365.918	1.41
366.287	1.39
366.655	1.39
367.024	1.47
367.392	1.37
367.76	1.26
368.128	1.37
368.497	1.28
368.865	1.3
369.233	1.37
369.601	1.4
369.969	1.38
370.337	1.4
370.705	1.25
371.073	1.36
371.441	1.31
371.809	1.26
372.177	1.32
372.544	1.36
372.912	1.39
373.28	1.38
373.647	1.34
374.015	1.43
374.383	1.62
374.75	1.57
375.118	1.34
375.485	1.48
375.853	1.42
376.22	1.3
376.587	1.36
376.955	1.5
377.322	1.37
377.689	1.45
378.056	1.32
378.423	1.35
378.79	1.43
379.157	1.43
379.524	1.38
379.891	1.32
380.258	1.44
380.625	1.42
380.992	1.42
381.359	1.48
381.726	1.62
382.092	1.4
382.459	1.47
382.826	1.51
383.192	1.5
383.559	1.42
383.925	1.43
384.292	1.56
384.658	1.6
385.025	1.47
385.391	1.47
385.757	1.51
386.123	1.51
386.49	1.54
386.856	1.37
387.222	1.53
387.588	1.38
387.954	1.81
388.32	1.55
388.686	1.59
389.052	1.57
389.418	1.49
389.784	1.59
390.15	1.53
390.515	1.4
390.881	1.57
391.247	1.38
391.613	1.62
391.978	1.46
392.344	1.66
392.709	1.52
393.075	1.61
393.44	1.61
393.806	1.45
394.171	1.48
394.536	1.65
394.902	1.38
395.267	1.51
395.632	1.45
395.997	1.38
396.362	1.43
396.727	1.48
397.092	1.44
397.457	1.51
397.822	1.52
398.187	1.5
398.552	1.42
398.917	1.53
399.282	1.4
399.646	1.53
400.011	1.57
400.376	1.41
400.74	1.38
401.105	1.54
401.47	1.45
401.834	1.42
402.199	1.4
402.563	1.59
402.927	1.49
403.292	1.48
403.656	1.48
404.02	1.46
404.384	1.51
404.749	1.48
405.113	1.62
405.477	1.43
405.841	1.34
406.205	1.33
406.569	1.4
406.933	1.36
407.296	1.35
407.66	1.33
408.024	1.28
408.388	1.39
408.752	1.39
409.115	1.38
409.479	1.34
409.842	1.3
410.206	1.26
410.569	1.3
410.933	1.3
411.296	1.2
411.66	1.32
412.023	1.18
412.386	1.27
412.749	1.18
413.113	1.27
413.476	1.25
413.839	1.24
414.202	1.28
414.565	1.23
414.928	1.16
415.291	1.17
415.654	1.24
416.017	1.31
416.38	1.19
416.742	1.21
417.105	1.17
417.468	1.14
417.83	1.13
418.193	1.21
418.556	1.12
418.918	1.15
419.281	1.18
419.643	1.21
420.005	1.18
420.368	1.14
420.73	1.18
421.092	1.17
421.455	1.24
421.817	1.14
422.179	1.14
422.541	1.18
422.903	1.15
423.265	1.16
423.627	1.15
423.989	1.11
424.351	1.14
424.713	1.16
425.075	1.12
425.436	1.12
425.798	1.15
426.16	1.16
426.521	1.15
426.883	1.16
427.245	1.12
427.606	1.08
427.967	1.09
428.329	1.12
428.69	1.09
429.052	1.05
429.413	1.12
429.774	1.1
430.135	1.1
430.497	1.07
430.858	1.06
431.219	1.11
431.58	1.03
431.941	1.03
432.302	1.05
432.663	1.13
433.024	1.09
433.384	1.07
433.745	1.02
434.106	1.07
434.467	1.04
434.827	1.03
435.188	1.05
435.548	1.11
435.909	1.06
436.269	1.07
436.63	1
436.99	1.02
437.351	0.99
437.711	1.02
438.071	0.99
438.431	0.97
438.792	1
439.152	0.98
439.512	0.99
439.872	0.99
440.232	1
440.592	0.98
440.952	0.98
441.312	0.95
441.671	0.92
442.031	0.93
442.391	0.96
442.751	0.95
443.11	0.97
443.47	0.92
443.83	0.94
444.189	0.9
444.549	0.92
444.908	0.91
445.267	0.88
445.627	0.91
445.986	0.87
446.345	0.88
446.705	0.89
447.064	0.88
447.423	0.87
447.782	0.87
448.141	0.86
448.5	0.85
448.859	0.86
449.218	0.84
449.577	0.85
449.936	0.84
450.295	0.86
450.653	0.82
451.012	0.83
451.371	0.83
451.729	0.82
452.088	0.82
452.447	0.81
452.805	0.8
453.163	0.8
453.522	0.8
453.88	0.78
454.239	0.78
454.597	0.76
454.955	0.76
455.313	0.74
455.671	0.75
456.029	0.75
456.388	0.73
456.746	0.73
457.104	0.72
457.461	0.7
457.819	0.7
458.177	0.7
458.535	0.69
458.893	0.68
459.25	0.68
459.608	0.68
459.966	0.65
460.323	0.65
460.681	0.64
461.038	0.64
461.396	0.63
461.753	0.62
462.111	0.61
462.468	0.6
462.825	0.6
463.182	0.6
463.54	0.59
463.897	0.59
464.254	0.58
464.611	0.57
464.968	0.55
465.325	0.57
465.682	0.54
466.039	0.54
466.395	0.54
466.752	0.53
467.109	0.52
467.466	0.53
467.822	0.51
468.179	0.5
468.535	0.49
468.892	0.49
469.248	0.48
469.605	0.47
469.961	0.47
470.318	0.48
470.674	0.47
471.03	0.46
471.386	0.45
471.743	0.45
472.099	0.43
472.455	0.44
472.811	0.42
473.167	0.42
473.523	0.4
473.879	0.42
474.235	0.41
474.59	0.4
474.946	0.4
475.302	0.4
475.657	0.38
476.013	0.38
476.369	0.38
476.724	0.37
477.08	0.37
477.435	0.37
477.791	0.36
478.146	0.36
478.501	0.35
478.857	0.35
479.212	0.35
479.567	0.34
479.922	0.33
480.277	0.32
480.632	0.32
480.987	0.32
481.342	0.32
481.697	0.31
482.052	0.3
482.407	0.3
482.762	0.29
483.116	0.29
483.471	0.29
483.826	0.28
484.18	0.28
484.535	0.27
484.89	0.27
485.244	0.27
485.598	0.27
485.953	0.27
486.307	0.26
486.661	0.26
487.016	0.26
487.37	0.26
487.724	0.25
488.078	0.25
488.432	0.25
488.786	0.25
489.14	0.24
489.494	0.24
489.848	0.24
490.202	0.24
490.556	0.24
490.91	0.23
491.263	0.24
491.617	0.24
491.971	0.22
492.324	0.22
492.678	0.22
493.031	0.23
493.385	0.22
493.738	0.21
494.091	0.21
494.445	0.21
494.798	0.21
495.151	0.21
495.504	0.21
495.857	0.2
496.21	0.21
496.564	0.2
496.916	0.21
497.269	0.2
497.622	0.2
497.975	0.2
498.328	0.2
498.681	0.2
499.033	0.2
499.386	0.19
499.739	0.19
500.091	0.19
500.444	0.19
500.796	0.19
501.149	0.19
501.501	0.19
501.854	0.18
502.206	0.19
502.558	0.19
502.91	0.2
503.263	0.19
503.615	0.19
503.967	0.18
504.319	0.18
504.671	0.18
505.023	0.18
505.375	0.17
505.726	0.18
506.078	0.18
506.43	0.17
506.782	0.18
507.133	0.17
507.485	0.17
507.837	0.19
508.188	0.18
508.54	0.18
508.891	0.18
509.243	0.17
509.594	0.18
509.945	0.17
510.296	0.17
510.648	0.17
510.999	0.17
511.35	0.17
511.701	0.17
512.052	0.18
512.403	0.17
512.754	0.17
513.105	0.16
513.456	0.16
513.807	0.16
514.157	0.16
514.508	0.16
514.859	0.15
515.209	0.16
515.56	0.16
515.91	0.16
516.261	0.16
516.611	0.16
516.962	0.16
517.312	0.16
517.662	0.16
518.013	0.17
518.363	0.16
518.713	0.16
519.063	0.16
519.413	0.16
519.763	0.16
520.113	0.16
520.463	0.16
520.813	0.17
521.163	0.17
521.512	0.17
521.862	0.16
522.212	0.16
522.562	0.17
522.911	0.16
523.261	0.16
523.61	0.16
523.96	0.16
524.309	0.17
524.658	0.16
525.008	0.16
525.357	0.16
525.706	0.17
526.056	0.16
526.405	0.16
526.754	0.17
527.103	0.17
527.452	0.16
527.801	0.16
528.15	0.17
528.499	0.16
528.847	0.17
529.196	0.17
529.545	0.17
529.893	0.17
530.242	0.16
530.591	0.17
530.939	0.17
531.288	0.16
531.636	0.17
531.985	0.16
532.333	0.16
532.681	0.16
533.029	0.17
533.378	0.17
533.726	0.17
534.074	0.17
534.422	0.16
534.77	0.17
535.118	0.17
535.466	0.16
535.814	0.17
536.162	0.17
536.509	0.18
536.857	0.16
537.205	0.17
537.552	0.17
537.9	0.17
538.248	0.16
538.595	0.16
538.943	0.17
539.29	0.17
539.637	0.15
539.985	0.16
540.332	0.16
540.679	0.16
541.026	0.16
541.373	0.17
541.721	0.16
542.068	0.16
542.415	0.16
542.762	0.16
543.108	0.15
543.455	0.16
543.802	0.16
544.149	0.16
544.496	0.16
544.842	0.16
545.189	0.15
545.535	0.16
545.882	0.17
546.228	0.16
546.575	0.16
546.921	0.16
547.267	0.17
547.614	0.16
547.96	0.17
548.306	0.15
548.652	0.17
548.998	0.16
549.344	0.16
549.69	0.16
550.036	0.16
550.382	0.16
550.728	0.16
551.074	0.16
551.42	0.17
551.765	0.16
552.111	0.17
552.457	0.17
552.802	0.17
553.148	0.17
553.493	0.16
553.839	0.17
554.184	0.18
554.529	0.16
554.875	0.17
555.22	0.18
555.565	0.17
555.91	0.17
556.255	0.17
556.6	0.17
556.945	0.16
557.29	0.17
557.635	0.18
557.98	0.17
558.325	0.17
558.67	0.17
559.014	0.17
559.359	0.16
559.704	0.16
560.048	0.16
560.393	0.16
560.737	0.16
561.082	0.16
561.426	0.16
561.77	0.16
562.115	0.16
562.459	0.16
562.803	0.16
563.147	0.16
563.491	0.17
563.835	0.16
564.179	0.16
564.523	0.16
564.867	0.16
565.211	0.16
565.555	0.17
565.899	0.17
566.242	0.17
566.586	0.16
566.93	0.17
567.273	0.17
567.617	0.17
567.96	0.17
568.304	0.16
568.647	0.17
568.99	0.16
569.334	0.17
569.677	0.17
570.02	0.18
570.363	0.17
570.706	0.17
571.049	0.18
571.392	0.17
571.735	0.16
572.078	0.17
572.421	0.18
572.764	0.18
573.106	0.17
573.449	0.17
573.792	0.16
574.134	0.17
574.477	0.17
574.819	0.17
575.162	0.18
575.504	0.17
575.847	0.17
576.189	0.17
576.531	0.17
576.873	0.16
577.215	0.17
577.558	0.17
577.9	0.17
578.242	0.17
578.584	0.16
578.926	0.17
579.267	0.16
579.609	0.17
579.951	0.16
580.293	0.16
580.634	0.16
580.976	0.17
581.318	0.16
581.659	0.16
582.001	0.17
582.342	0.17
582.683	0.17
583.025	0.16
583.366	0.16
583.707	0.17
584.049	0.16
584.39	0.17
584.731	0.16
585.072	0.16
585.413	0.17
585.754	0.16
586.095	0.17
586.435	0.16
586.776	0.16
587.117	0.16
587.458	0.16
587.798	0.16
588.139	0.16
588.48	0.16
588.82	0.16
589.161	0.16
589.501	0.15
589.841	0.16
590.182	0.15
590.522	0.15
590.862	0.16
591.202	0.15
591.542	0.16
591.882	0.14
592.222	0.16
592.562	0.16
592.902	0.15
593.242	0.15
593.582	0.16
593.922	0.16
594.261	0.16
594.601	0.16
594.941	0.16
595.28	0.16
595.62	0.16
595.959	0.16
596.299	0.16
596.638	0.15
596.977	0.15
597.317	0.17
597.656	0.16
597.995	0.16
598.334	0.17
598.673	0.16
599.012	0.16
599.351	0.16
599.69	0.16
600.029	0.16
600.368	0.17
600.707	0.17
601.046	0.16
601.384	0.16
601.723	0.16
602.061	0.16
602.4	0.16
602.738	0.15
603.077	0.16
603.415	0.16
603.754	0.16
604.092	0.16
604.43	0.16
604.768	0.16
605.107	0.16
605.445	0.16
605.783	0.16
606.121	0.15
606.459	0.16
606.796	0.17
607.134	0.16
607.472	0.15
607.81	0.16
608.148	0.16
608.485	0.17
608.823	0.16
609.16	0.16
609.498	0.17
609.835	0.16
610.173	0.16
610.51	0.17
610.847	0.16
611.185	0.17
611.522	0.17
611.859	0.17
612.196	0.17
612.533	0.18
612.87	0.17
613.207	0.17
613.544	0.17
613.881	0.18
614.217	0.17
614.554	0.17
614.891	0.17
615.228	0.17
615.564	0.17
615.901	0.17
616.237	0.16
616.574	0.16
616.91	0.17
617.246	0.16
617.583	0.16
617.919	0.17
618.255	0.17
618.591	0.16
618.927	0.16
619.263	0.17
619.599	0.17
619.935	0.17
620.271	0.17
620.607	0.17
620.943	0.16
621.279	0.16
621.614	0.16
621.95	0.16
622.286	0.16
622.621	0.16
622.957	0.15
623.292	0.16
623.627	0.16
623.963	0.15
624.298	0.16
624.633	0.15
624.968	0.15
625.304	0.16
625.639	0.16
625.974	0.15
626.309	0.15
626.644	0.16
626.979	0.15
627.313	0.16
627.648	0.16
627.983	0.16
628.318	0.16
628.652	0.15
628.987	0.16
629.321	0.16
629.656	0.15
629.99	0.15
630.325	0.15
630.659	0.15
630.993	0.15
631.327	0.15
631.662	0.14
631.996	0.15
632.33	0.14
632.664	0.15
632.998	0.15
633.332	0.14
633.666	0.14
633.999	0.14
634.333	0.13
634.667	0.14
635.001	0.13
635.334	0.13
635.668	0.14
636.001	0.14
636.335	0.14
636.668	0.14
637.001	0.13
637.335	0.14
637.668	0.14
638.001	0.14
638.334	0.14
638.668	0.14
639.001	0.14
639.334	0.14
639.667	0.13
639.999	0.14
640.332	0.14
640.665	0.14
640.998	0.14
641.331	0.14
641.663	0.14
641.996	0.14
642.328	0.15
642.661	0.15
642.993	0.14
643.326	0.15
643.658	0.13
643.99	0.14
644.323	0.14
644.655	0.13
644.987	0.14
645.319	0.14
645.651	0.14
645.983	0.14
646.315	0.14
646.647	0.14
646.979	0.15
647.31	0.15
647.642	0.14
647.974	0.15
648.305	0.15
648.637	0.14
648.968	0.14
649.3	0.14
649.631	0.14
649.963	0.14
650.294	0.14
650.625	0.14
650.957	0.14
651.288	0.14
651.619	0.15
651.95	0.14
652.281	0.14
652.612	0.14
652.943	0.14
653.274	0.14
653.604	0.14
653.935	0.13
654.266	0.14
654.596	0.13
654.927	0.14
655.258	0.14
655.588	0.14
655.918	0.14
656.249	0.12
656.579	0.13
656.909	0.13
657.24	0.13
657.57	0.14
657.9	0.14
658.23	0.13
658.56	0.14
658.89	0.14
659.22	0.13
659.55	0.14
659.88	0.13
660.209	0.14
660.539	0.15
660.869	0.14
661.198	0.13
661.528	0.13
661.857	0.13
662.187	0.14
662.516	0.13
662.846	0.14
663.175	0.14
663.504	0.13
663.833	0.13
664.163	0.13
664.492	0.13
664.821	0.13
665.15	0.13
665.479	0.13
665.807	0.13
666.136	0.13
666.465	0.13
666.794	0.13
667.122	0.12
667.451	0.12
667.78	0.12
668.108	0.13
668.437	0.13
668.765	0.13
669.093	0.12
669.422	0.12
669.75	0.13
670.078	0.12
670.406	0.13
670.734	0.12
671.062	0.13
671.39	0.13
671.718	0.12
672.046	0.12
672.374	0.12
672.702	0.12
673.029	0.12
673.357	0.13
673.685	0.13
674.012	0.12
674.34	0.12
674.667	0.13
674.995	0.12
675.322	0.12
675.649	0.12
675.977	0.12
676.304	0.12
676.631	0.11
676.958	0.12
677.285	0.11
677.612	0.1
677.939	0.12
678.266	0.12
678.593	0.11
678.92	0.11
679.246	0.1
679.573	0.11
679.9	0.11
680.226	0.11
680.553	0.1
680.879	0.11
681.206	0.11
681.532	0.1
681.858	0.11
682.184	0.11
682.511	0.11
682.837	0.1
683.163	0.11
683.489	0.11
683.815	0.1
684.141	0.1
684.467	0.11
684.793	0.1
685.118	0.11
685.444	0.11
685.77	0.1
686.095	0.11
686.421	0.1
686.746	0.11
687.072	0.1
687.397	0.1
687.723	0.11
688.048	0.11
688.373	0.11
688.698	0.11
689.023	0.1
689.349	0.11
689.674	0.11
689.999	0.1
690.323	0.1
690.648	0.09
690.973	0.09
691.298	0.09
691.623	0.09
691.947	0.09
692.272	0.09
692.596	0.09
692.921	0.1
693.245	0.09
693.57	0.1
693.894	0.1
694.218	0.1
694.543	0.09
694.867	0.09
695.191	0.09
695.515	0.09
695.839	0.08
696.163	0.09
696.487	0.1
696.811	0.09
697.135	0.1
697.458	0.09
697.782	0.09
698.106	0.1
698.429	0.09
698.753	0.09
699.076	0.1
699.4	0.09
699.723	0.1
700.046	0.09
700.37	0.1
700.693	0.1
701.016	0.09
701.339	0.1
701.662	0.1
701.985	0.1
702.308	0.09
702.631	0.09
702.954	0.09
703.277	0.09
703.599	0.1
703.922	0.09
704.245	0.09
704.567	0.08
704.89	0.09
705.212	0.09
705.535	0.08
705.857	0.08
706.179	0.08
706.502	0.08
706.824	0.07
707.146	0.07
707.468	0.08
707.79	0.08
708.112	0.08
708.434	0.08
708.756	0.08
709.078	0.08
709.399	0.08
709.721	0.08
710.043	0.09
710.364	0.08
710.686	0.08
711.007	0.08
711.329	0.08
711.65	0.08
711.972	0.07
712.293	0.08
712.614	0.08
712.935	0.08
713.256	0.08
713.577	0.09
713.898	0.08
714.219	0.09
714.54	0.08
714.861	0.07
715.182	0.07
715.503	0.08
715.823	0.08
716.144	0.07
716.464	0.07
716.785	0.07
717.105	0.08
717.426	0.09
717.746	0.08
718.066	0.06
718.387	0.07
718.707	0.07
719.027	0.07
719.347	0.06
719.667	0.08
719.987	0.06
720.307	0.07
720.627	0.06
720.947	0.07
721.266	0.07
721.586	0.06
721.906	0.07
722.225	0.06
722.545	0.07
722.864	0.07
723.184	0.07
723.503	0.06
723.823	0.07
724.142	0.06
