Data from 12-12-AQDScycling_Absorbance__388__00388.txt Node

Date: Tue Dec 12 12:33:44 EST 2023
User: kyuminlee
Spectrometer: FLMS00943
Trigger mode: 0
Integration Time (sec): 1.000000E-1
Scans to average: 1
Electric dark correction enabled: true
Nonlinearity correction enabled: false
Boxcar width: 0
XAxis mode: Wavelengths
Number of Pixels in Spectrum: 2048
>>>>>Begin Spectral Data<<<<<
179.651	-0
180.037	-0
180.424	-0
180.81	-0.18
181.197	0.38
181.583	0.3
181.97	-0.26
182.356	0
182.743	-0
183.129	0.04
183.515	0.96
183.901	-0
184.288	1.61
184.674	0.68
185.06	-0.17
185.446	-0
185.832	-0
186.218	0.04
186.604	0.07
186.99	-0
187.376	-0
187.762	-0
188.148	0.47
188.534	0.04
188.92	0.13
189.305	0.07
189.691	0.32
190.077	0.15
190.463	0.17
190.848	0.1
191.234	0.04
191.619	0.19
192.005	0.31
192.391	0.34
192.776	0.32
193.161	0.25
193.547	0.17
193.932	0.06
194.318	0.03
194.703	0.2
195.088	0.26
195.473	0.24
195.859	0.13
196.244	0.19
196.629	0.25
197.014	0.21
197.399	0.09
197.784	0.32
198.169	0.18
198.554	0.24
198.939	0.33
199.324	0.13
199.709	0.07
200.094	0.14
200.478	0.07
200.863	0.29
201.248	0.36
201.633	0.23
202.017	0.19
202.402	0.23
202.787	0.09
203.171	0.19
203.556	0.16
203.94	0.16
204.325	0.23
204.709	0.33
205.093	0.12
205.478	0.11
205.862	0.16
206.246	0.31
206.631	0.23
207.015	0.07
207.399	0.27
207.783	0.19
208.167	0.3
208.551	0.28
208.935	0.25
209.319	0.13
209.703	0.17
210.087	0.33
210.471	0.22
210.855	0.2
211.239	0.18
211.623	0.22
212.007	0.27
212.39	0.45
212.774	0.23
213.158	0.16
213.541	0.23
213.925	0.22
214.309	0.2
214.692	0.35
215.076	0.26
215.459	0.38
215.842	0.13
216.226	0.32
216.609	0.35
216.993	0.17
217.376	0.46
217.759	0.2
218.142	0.26
218.525	0.42
218.909	0.42
219.292	0.3
219.675	0.52
220.058	0.27
220.441	0.43
220.824	0.59
221.207	0.62
221.59	0.47
221.973	0.61
222.355	0.56
222.738	0.84
223.121	0.58
223.504	0.6
223.886	0.66
224.269	0.74
224.652	0.66
225.034	0.83
225.417	0.88
225.799	0.73
226.182	0.7
226.564	0.75
226.947	0.71
227.329	0.77
227.711	0.92
228.094	0.92
228.476	0.97
228.858	0.85
229.24	0.89
229.623	0.86
230.005	0.83
230.387	1.14
230.769	0.92
231.151	0.93
231.533	1.05
231.915	0.98
232.297	1.12
232.679	0.99
233.061	1.09
233.442	1
233.824	1.07
234.206	1.26
234.588	1.07
234.969	1.04
235.351	1.01
235.733	0.98
236.114	1.27
236.496	1.07
236.877	1.16
237.259	0.99
237.64	1.13
238.022	1.11
238.403	1.06
238.784	1.06
239.165	0.98
239.547	1.08
239.928	1.04
240.309	1.1
240.69	1.03
241.071	1.17
241.452	1.15
241.834	1
242.215	1.18
242.595	1.08
242.976	1.15
243.357	1.15
243.738	1.02
244.119	1.27
244.5	1.15
244.881	1.24
245.261	1.28
245.642	1.24
246.023	1.16
246.403	1.24
246.784	1.21
247.164	1.25
247.545	1.25
247.925	1.38
248.306	1.21
248.686	1.43
249.067	1.3
249.447	1.35
249.827	1.71
250.207	1.6
250.588	1.36
250.968	1.34
251.348	1.24
251.728	1.45
252.108	1.38
252.488	1.32
252.868	1.27
253.248	1.34
253.628	1.41
254.008	1.54
254.388	1.4
254.768	1.39
255.147	1.44
255.527	1.48
255.907	1.4
256.287	1.42
256.666	1.54
257.046	1.52
257.425	1.88
257.805	1.4
258.184	1.27
258.564	1.43
258.943	1.3
259.323	1.49
259.702	1.48
260.081	1.55
260.461	1.52
260.84	1.49
261.219	1.87
261.598	1.55
261.977	1.45
262.356	1.5
262.736	1.5
263.115	1.64
263.494	1.42
263.873	1.49
264.251	1.51
264.63	1.42
265.009	1.47
265.388	1.53
265.767	1.42
266.145	1.4
266.524	1.35
266.903	1.46
267.281	1.45
267.66	1.63
268.039	1.58
268.417	1.45
268.796	1.38
269.174	1.45
269.552	1.35
269.931	1.56
270.309	1.51
270.687	1.63
271.066	1.65
271.444	1.57
271.822	1.39
272.2	1.48
272.578	1.45
272.956	1.54
273.334	1.37
273.712	1.5
274.09	1.47
274.468	1.32
274.846	1.38
275.224	1.42
275.602	1.44
275.98	1.64
276.357	1.39
276.735	1.5
277.113	1.45
277.49	1.4
277.868	1.26
278.246	1.69
278.623	1.34
279.001	1.36
279.378	1.42
279.756	1.64
280.133	1.72
280.51	1.33
280.888	1.41
281.265	1.39
281.642	1.56
282.019	1.46
282.396	1.57
282.773	1.52
283.151	1.53
283.528	1.48
283.905	1.42
284.282	1.44
284.659	1.57
285.035	1.34
285.412	1.46
285.789	1.76
286.166	1.5
286.543	1.54
286.919	1.48
287.296	1.53
287.673	1.84
288.049	1.67
288.426	1.61
288.802	1.61
289.179	1.54
289.555	2.29
289.932	1.42
290.308	1.34
290.684	1.35
291.061	1.41
291.437	1.55
291.813	1.4
292.189	1.33
292.565	1.29
292.942	1.26
293.318	1.35
293.694	1.43
294.07	1.37
294.446	1.43
294.822	1.55
295.197	1.55
295.573	1.34
295.949	1.36
296.325	1.56
296.701	1.55
297.076	1.53
297.452	1.58
297.828	1.43
298.203	1.6
298.579	1.41
298.954	1.39
299.33	1.42
299.705	1.33
300.081	1.46
300.456	1.39
300.831	1.36
301.206	1.38
301.582	1.38
301.957	1.35
302.332	1.41
302.707	1.29
303.082	1.27
303.457	1.3
303.832	1.28
304.207	1.21
304.582	1.22
304.957	1.31
305.332	1.25
305.707	1.24
306.082	1.23
306.456	1.15
306.831	1.13
307.206	1.17
307.58	1.19
307.955	1.14
308.33	1.13
308.704	1.13
309.079	1.08
309.453	1.15
309.828	1.11
310.202	1.1
310.576	1.08
310.951	1.09
311.325	1.05
311.699	1.08
312.073	1.01
312.447	1.01
312.821	1.03
313.196	1.05
313.57	0.99
313.944	1.01
314.317	1
314.691	1.03
315.065	1.01
315.439	0.98
315.813	1.01
316.187	1
316.56	0.99
316.934	0.97
317.308	0.96
317.681	1
318.055	0.98
318.428	0.96
318.802	1.05
319.175	0.96
319.549	0.97
319.922	0.95
320.295	1
320.669	1.02
321.042	1.02
321.415	1
321.788	1.01
322.162	0.93
322.535	0.99
322.908	0.97
323.281	0.97
323.654	1.02
324.027	0.98
324.4	1.02
324.773	1.02
325.145	1.01
325.518	0.94
325.891	0.96
326.264	1.05
326.636	0.96
327.009	0.97
327.382	0.97
327.754	1.09
328.127	1.06
328.499	1.01
328.872	1.03
329.244	1.02
329.616	0.99
329.989	1.01
330.361	0.97
330.733	0.98
331.106	0.99
331.478	1.03
331.85	1.04
332.222	0.95
332.594	1.05
332.966	1.02
333.338	1.13
333.71	1.05
334.082	1.06
334.454	1.04
334.826	1.11
335.197	1.08
335.569	1.04
335.941	1.08
336.312	1.07
336.684	1.12
337.056	1.1
337.427	1.13
337.799	1.16
338.17	1.12
338.542	1.14
338.913	1.12
339.284	1.11
339.656	1.08
340.027	1.09
340.398	1.18
340.769	1.21
341.141	1.18
341.512	1.15
341.883	1.17
342.254	1.14
342.625	1.2
342.996	1.19
343.367	1.14
343.738	1.2
344.108	1.13
344.479	1.27
344.85	1.15
345.221	1.27
345.591	1.13
345.962	1.19
346.333	1.2
346.703	1.14
347.074	1.19
347.444	1.19
347.815	1.16
348.185	1.31
348.556	1.26
348.926	1.17
349.296	1.2
349.666	1.31
350.037	1.16
350.407	1.16
350.777	1.27
351.147	1.34
351.517	1.3
351.887	1.26
352.257	1.31
352.627	1.27
352.997	1.36
353.367	1.34
353.737	1.38
354.106	1.44
354.476	1.36
354.846	1.42
355.216	1.43
355.585	1.42
355.955	1.42
356.324	1.37
356.694	1.46
357.063	1.39
357.433	1.45
357.802	1.49
358.171	1.52
358.541	1.47
358.91	1.7
359.279	1.44
359.648	1.45
360.017	1.49
360.387	1.57
360.756	1.44
361.125	1.49
361.494	1.56
361.863	1.46
362.231	1.52
362.6	1.45
362.969	1.58
363.338	1.51
363.707	1.69
364.075	1.56
364.444	1.41
364.813	1.49
365.181	1.48
365.55	1.51
365.918	1.71
366.287	1.51
366.655	1.73
367.024	1.55
367.392	1.68
367.76	1.56
368.128	1.63
368.497	1.6
368.865	1.56
369.233	1.58
369.601	1.55
369.969	1.58
370.337	1.54
370.705	1.62
371.073	1.59
371.441	1.67
371.809	1.55
372.177	1.51
372.544	1.45
372.912	1.55
373.28	1.51
373.647	1.59
374.015	1.83
374.383	1.84
374.75	1.71
375.118	1.48
375.485	1.67
375.853	1.66
376.22	1.55
376.587	1.55
376.955	1.61
377.322	1.61
377.689	1.59
378.056	1.55
378.423	1.59
378.79	1.53
379.157	1.68
379.524	1.66
379.891	1.49
380.258	1.58
380.625	1.56
380.992	1.53
381.359	1.72
381.726	1.85
382.092	1.6
382.459	1.51
382.826	1.61
383.192	1.69
383.559	1.56
383.925	1.61
384.292	1.44
384.658	1.71
385.025	1.44
385.391	1.81
385.757	1.72
386.123	1.51
386.49	1.55
386.856	1.52
387.222	1.6
387.588	1.66
387.954	1.77
388.32	1.8
388.686	1.66
389.052	1.56
389.418	1.62
389.784	1.67
390.15	1.67
390.515	1.45
390.881	1.66
391.247	1.68
391.613	1.59
391.978	1.5
392.344	1.78
392.709	1.58
393.075	1.59
393.44	1.62
393.806	1.64
394.171	1.51
394.536	1.51
394.902	1.62
395.267	1.59
395.632	1.56
395.997	1.58
396.362	1.58
396.727	1.52
397.092	1.54
397.457	1.54
397.822	1.6
398.187	1.58
398.552	1.68
398.917	1.73
399.282	1.49
399.646	1.48
400.011	1.84
400.376	1.51
400.74	1.59
401.105	1.54
401.47	1.76
401.834	1.74
402.199	1.71
402.563	1.57
402.927	1.58
403.292	1.54
403.656	1.75
404.02	1.56
404.384	1.82
404.749	1.63
405.113	1.64
405.477	1.72
405.841	1.75
406.205	1.56
406.569	1.63
406.933	1.67
407.296	1.55
407.66	1.53
408.024	1.67
408.388	1.71
408.752	1.61
409.115	1.76
409.479	1.59
409.842	1.43
410.206	1.51
410.569	1.67
410.933	1.56
411.296	1.51
411.66	1.64
412.023	1.53
412.386	1.47
412.749	1.4
413.113	1.54
413.476	1.58
413.839	1.59
414.202	1.53
414.565	1.41
414.928	1.48
415.291	1.45
415.654	1.44
416.017	1.57
416.38	1.47
416.742	1.5
417.105	1.46
417.468	1.48
417.83	1.62
418.193	1.49
418.556	1.41
418.918	1.42
419.281	1.62
419.643	1.61
420.005	1.57
420.368	1.48
420.73	1.46
421.092	1.58
421.455	1.65
421.817	1.35
422.179	1.5
422.541	1.53
422.903	1.7
423.265	1.62
423.627	1.48
423.989	1.48
424.351	1.52
424.713	1.61
425.075	1.6
425.436	1.51
425.798	1.47
426.16	1.58
426.521	1.48
426.883	1.5
427.245	1.48
427.606	1.52
427.967	1.34
428.329	1.39
428.69	1.58
429.052	1.42
429.413	1.61
429.774	1.57
430.135	1.55
430.497	1.61
430.858	1.56
431.219	1.53
431.58	1.38
431.941	1.51
432.302	1.36
432.663	1.46
433.024	1.54
433.384	1.51
433.745	1.41
434.106	1.47
434.467	1.46
434.827	1.44
435.188	1.42
435.548	1.6
435.909	1.45
436.269	1.58
436.63	1.49
436.99	1.43
437.351	1.34
437.711	1.48
438.071	1.38
438.431	1.35
438.792	1.52
439.152	1.43
439.512	1.45
439.872	1.38
440.232	1.39
440.592	1.41
440.952	1.43
441.312	1.39
441.671	1.37
442.031	1.44
442.391	1.37
442.751	1.36
443.11	1.38
443.47	1.3
443.83	1.28
444.189	1.27
444.549	1.34
444.908	1.26
445.267	1.34
445.627	1.33
445.986	1.29
446.345	1.27
446.705	1.33
447.064	1.28
447.423	1.28
447.782	1.3
448.141	1.26
448.5	1.19
448.859	1.2
449.218	1.19
449.577	1.23
449.936	1.24
450.295	1.23
450.653	1.19
451.012	1.21
451.371	1.23
451.729	1.17
452.088	1.21
452.447	1.17
452.805	1.18
453.163	1.17
453.522	1.19
453.88	1.14
454.239	1.14
454.597	1.12
454.955	1.1
455.313	1.09
455.671	1.1
456.029	1.09
456.388	1.07
456.746	1.05
457.104	1.03
457.461	1.01
457.819	1.01
458.177	1.01
458.535	0.98
458.893	0.99
459.25	0.96
459.608	0.95
459.966	0.93
460.323	0.92
460.681	0.91
461.038	0.91
461.396	0.88
461.753	0.88
462.111	0.87
462.468	0.85
462.825	0.86
463.182	0.83
463.54	0.81
463.897	0.83
464.254	0.81
464.611	0.81
464.968	0.78
465.325	0.78
465.682	0.77
466.039	0.76
466.395	0.73
466.752	0.72
467.109	0.73
467.466	0.71
467.822	0.71
468.179	0.68
468.535	0.68
468.892	0.66
469.248	0.64
469.605	0.64
469.961	0.63
470.318	0.64
470.674	0.62
471.03	0.61
471.386	0.6
471.743	0.59
472.099	0.58
472.455	0.57
472.811	0.56
473.167	0.55
473.523	0.53
473.879	0.52
474.235	0.53
474.59	0.51
474.946	0.5
475.302	0.5
475.657	0.48
476.013	0.48
476.369	0.46
476.724	0.47
477.08	0.45
477.435	0.44
477.791	0.44
478.146	0.44
478.501	0.42
478.857	0.41
479.212	0.41
479.567	0.4
479.922	0.4
480.277	0.39
480.632	0.37
480.987	0.38
481.342	0.37
481.697	0.36
482.052	0.35
482.407	0.34
482.762	0.34
483.116	0.33
483.471	0.32
483.826	0.31
484.18	0.31
484.535	0.31
484.89	0.3
485.244	0.3
485.598	0.29
485.953	0.29
486.307	0.28
486.661	0.28
487.016	0.28
487.37	0.28
487.724	0.27
488.078	0.26
488.432	0.26
488.786	0.25
489.14	0.25
489.494	0.24
489.848	0.24
490.202	0.24
490.556	0.23
490.91	0.23
491.263	0.23
491.617	0.22
491.971	0.22
492.324	0.21
492.678	0.21
493.031	0.22
493.385	0.21
493.738	0.21
494.091	0.2
494.445	0.2
494.798	0.2
495.151	0.19
495.504	0.19
495.857	0.18
496.21	0.19
496.564	0.18
496.916	0.18
497.269	0.17
497.622	0.18
497.975	0.17
498.328	0.18
498.681	0.16
499.033	0.17
499.386	0.17
499.739	0.17
500.091	0.16
500.444	0.16
500.796	0.16
501.149	0.15
501.501	0.15
501.854	0.16
502.206	0.15
502.558	0.15
502.91	0.15
503.263	0.15
503.615	0.14
503.967	0.14
504.319	0.14
504.671	0.14
505.023	0.14
505.375	0.13
505.726	0.14
506.078	0.13
506.43	0.13
506.782	0.13
507.133	0.13
507.485	0.13
507.837	0.14
508.188	0.13
508.54	0.13
508.891	0.14
509.243	0.13
509.594	0.13
509.945	0.13
510.296	0.12
510.648	0.12
510.999	0.12
511.35	0.13
511.701	0.12
512.052	0.13
512.403	0.12
512.754	0.12
513.105	0.12
513.456	0.12
513.807	0.11
514.157	0.12
514.508	0.12
514.859	0.11
515.209	0.12
515.56	0.12
515.91	0.12
516.261	0.12
516.611	0.12
516.962	0.11
517.312	0.12
517.662	0.12
518.013	0.11
518.363	0.12
518.713	0.12
519.063	0.11
519.413	0.11
519.763	0.11
520.113	0.11
520.463	0.12
520.813	0.12
521.163	0.12
521.512	0.11
521.862	0.11
522.212	0.12
522.562	0.12
522.911	0.11
523.261	0.12
523.61	0.11
523.96	0.11
524.309	0.11
524.658	0.11
525.008	0.11
525.357	0.11
525.706	0.12
526.056	0.11
526.405	0.12
526.754	0.11
527.103	0.11
527.452	0.11
527.801	0.11
528.15	0.12
528.499	0.11
528.847	0.11
529.196	0.11
529.545	0.12
529.893	0.12
530.242	0.11
530.591	0.12
530.939	0.12
531.288	0.12
531.636	0.12
531.985	0.11
532.333	0.11
532.681	0.12
533.029	0.11
533.378	0.12
533.726	0.12
534.074	0.12
534.422	0.12
534.77	0.12
535.118	0.12
535.466	0.12
535.814	0.12
536.162	0.12
536.509	0.12
536.857	0.12
537.205	0.11
537.552	0.12
537.9	0.11
538.248	0.12
538.595	0.12
538.943	0.12
539.29	0.11
539.637	0.12
539.985	0.12
540.332	0.11
540.679	0.11
541.026	0.11
541.373	0.11
541.721	0.11
542.068	0.11
542.415	0.11
542.762	0.11
543.108	0.1
543.455	0.1
543.802	0.1
544.149	0.1
544.496	0.1
544.842	0.1
545.189	0.1
545.535	0.1
545.882	0.11
546.228	0.1
546.575	0.1
546.921	0.1
547.267	0.1
547.614	0.11
547.96	0.11
548.306	0.1
548.652	0.11
548.998	0.11
549.344	0.1
549.69	0.11
550.036	0.1
550.382	0.1
550.728	0.1
551.074	0.11
551.42	0.11
551.765	0.11
552.111	0.12
552.457	0.13
552.802	0.11
553.148	0.11
553.493	0.11
553.839	0.11
554.184	0.12
554.529	0.11
554.875	0.11
555.22	0.12
555.565	0.11
555.91	0.11
556.255	0.12
556.6	0.11
556.945	0.11
557.29	0.11
557.635	0.12
557.98	0.12
558.325	0.11
558.67	0.11
559.014	0.12
559.359	0.11
559.704	0.12
560.048	0.11
560.393	0.11
560.737	0.1
561.082	0.11
561.426	0.11
561.77	0.11
562.115	0.1
562.459	0.1
562.803	0.11
563.147	0.11
563.491	0.12
563.835	0.11
564.179	0.11
564.523	0.11
564.867	0.11
565.211	0.11
565.555	0.12
565.899	0.11
566.242	0.11
566.586	0.11
566.93	0.11
567.273	0.12
567.617	0.11
567.96	0.12
568.304	0.11
568.647	0.11
568.99	0.11
569.334	0.12
569.677	0.12
570.02	0.11
570.363	0.12
570.706	0.11
571.049	0.11
571.392	0.11
571.735	0.11
572.078	0.12
572.421	0.11
572.764	0.12
573.106	0.11
573.449	0.11
573.792	0.11
574.134	0.11
574.477	0.11
574.819	0.11
575.162	0.1
575.504	0.11
575.847	0.11
576.189	0.12
576.531	0.11
576.873	0.11
577.215	0.11
577.558	0.11
577.9	0.1
578.242	0.11
578.584	0.11
578.926	0.11
579.267	0.11
579.609	0.11
579.951	0.11
580.293	0.11
580.634	0.12
580.976	0.12
581.318	0.11
581.659	0.11
582.001	0.11
582.342	0.11
582.683	0.12
583.025	0.11
583.366	0.11
583.707	0.1
584.049	0.11
584.39	0.11
584.731	0.11
585.072	0.1
585.413	0.11
585.754	0.11
586.095	0.12
586.435	0.12
586.776	0.12
587.117	0.11
587.458	0.1
587.798	0.11
588.139	0.12
588.48	0.11
588.82	0.11
589.161	0.11
589.501	0.11
589.841	0.11
590.182	0.11
590.522	0.1
590.862	0.11
591.202	0.11
591.542	0.1
591.882	0.11
592.222	0.1
592.562	0.11
592.902	0.1
593.242	0.1
593.582	0.11
593.922	0.11
594.261	0.1
594.601	0.1
594.941	0.11
595.28	0.11
595.62	0.11
595.959	0.1
596.299	0.11
596.638	0.11
596.977	0.11
597.317	0.12
597.656	0.11
597.995	0.11
598.334	0.12
598.673	0.1
599.012	0.11
599.351	0.12
599.69	0.11
600.029	0.11
600.368	0.11
600.707	0.11
601.046	0.11
601.384	0.11
601.723	0.11
602.061	0.11
602.4	0.11
602.738	0.11
603.077	0.11
603.415	0.11
603.754	0.11
604.092	0.11
604.43	0.1
604.768	0.11
605.107	0.11
605.445	0.1
605.783	0.1
606.121	0.1
606.459	0.11
606.796	0.11
607.134	0.1
607.472	0.11
607.81	0.11
608.148	0.1
608.485	0.11
608.823	0.11
609.16	0.11
609.498	0.11
609.835	0.1
610.173	0.11
610.51	0.1
610.847	0.11
611.185	0.11
611.522	0.11
611.859	0.11
612.196	0.12
612.533	0.11
612.87	0.12
613.207	0.12
613.544	0.12
613.881	0.13
614.217	0.12
614.554	0.11
614.891	0.12
615.228	0.12
615.564	0.12
615.901	0.11
616.237	0.11
616.574	0.11
616.91	0.12
617.246	0.12
617.583	0.12
617.919	0.12
618.255	0.12
618.591	0.11
618.927	0.12
619.263	0.11
619.599	0.12
619.935	0.12
620.271	0.12
620.607	0.12
620.943	0.11
621.279	0.12
621.614	0.11
621.95	0.11
622.286	0.11
622.621	0.11
622.957	0.11
623.292	0.1
623.627	0.1
623.963	0.1
624.298	0.1
624.633	0.1
624.968	0.1
625.304	0.1
625.639	0.1
625.974	0.1
626.309	0.1
626.644	0.1
626.979	0.11
627.313	0.1
627.648	0.1
627.983	0.1
628.318	0.1
628.652	0.09
628.987	0.1
629.321	0.1
629.656	0.09
629.99	0.09
630.325	0.1
630.659	0.1
630.993	0.1
631.327	0.1
631.662	0.09
631.996	0.1
632.33	0.1
632.664	0.1
632.998	0.09
633.332	0.09
633.666	0.1
633.999	0.1
634.333	0.09
634.667	0.09
635.001	0.09
635.334	0.09
635.668	0.09
636.001	0.09
636.335	0.1
636.668	0.09
637.001	0.09
637.335	0.09
637.668	0.1
638.001	0.09
638.334	0.09
638.668	0.09
639.001	0.09
639.334	0.09
639.667	0.08
639.999	0.09
640.332	0.09
640.665	0.08
640.998	0.09
641.331	0.09
641.663	0.09
641.996	0.08
642.328	0.09
642.661	0.09
642.993	0.09
643.326	0.09
643.658	0.09
643.99	0.08
644.323	0.08
644.655	0.09
644.987	0.09
645.319	0.09
645.651	0.09
645.983	0.09
646.315	0.08
646.647	0.09
646.979	0.09
647.31	0.09
647.642	0.09
647.974	0.08
648.305	0.09
648.637	0.09
648.968	0.09
649.3	0.09
649.631	0.09
649.963	0.09
650.294	0.09
650.625	0.09
650.957	0.09
651.288	0.09
651.619	0.09
651.95	0.09
652.281	0.1
652.612	0.09
652.943	0.09
653.274	0.1
653.604	0.09
653.935	0.09
654.266	0.09
654.596	0.09
654.927	0.09
655.258	0.09
655.588	0.1
655.918	0.1
656.249	0.08
656.579	0.09
656.909	0.09
657.24	0.09
657.57	0.09
657.9	0.09
658.23	0.09
658.56	0.1
658.89	0.1
659.22	0.09
659.55	0.09
659.88	0.09
660.209	0.09
660.539	0.1
660.869	0.1
661.198	0.1
661.528	0.1
661.857	0.1
662.187	0.1
662.516	0.1
662.846	0.1
663.175	0.09
663.504	0.09
663.833	0.09
664.163	0.1
664.492	0.09
664.821	0.09
665.15	0.09
665.479	0.1
665.807	0.09
666.136	0.1
666.465	0.09
666.794	0.09
667.122	0.09
667.451	0.08
667.78	0.09
668.108	0.09
668.437	0.08
668.765	0.09
669.093	0.09
669.422	0.09
669.75	0.09
670.078	0.09
670.406	0.09
670.734	0.09
671.062	0.08
671.39	0.09
671.718	0.09
672.046	0.09
672.374	0.08
672.702	0.09
673.029	0.08
673.357	0.1
673.685	0.09
674.012	0.09
674.34	0.09
674.667	0.09
674.995	0.09
675.322	0.09
675.649	0.09
675.977	0.09
676.304	0.09
676.631	0.08
676.958	0.09
677.285	0.09
677.612	0.08
677.939	0.08
678.266	0.09
678.593	0.09
678.92	0.09
679.246	0.08
679.573	0.08
679.9	0.09
680.226	0.08
680.553	0.08
680.879	0.09
681.206	0.09
681.532	0.08
681.858	0.08
682.184	0.08
682.511	0.08
682.837	0.08
683.163	0.09
683.489	0.08
683.815	0.07
684.141	0.08
684.467	0.08
684.793	0.08
685.118	0.08
685.444	0.07
685.77	0.08
686.095	0.09
686.421	0.08
686.746	0.08
687.072	0.08
687.397	0.07
687.723	0.09
688.048	0.09
688.373	0.09
688.698	0.09
689.023	0.08
689.349	0.08
689.674	0.1
689.999	0.08
690.323	0.08
690.648	0.08
690.973	0.08
691.298	0.08
691.623	0.08
691.947	0.08
692.272	0.08
692.596	0.08
692.921	0.07
693.245	0.08
693.57	0.08
693.894	0.09
694.218	0.08
694.543	0.08
694.867	0.08
695.191	0.07
695.515	0.08
695.839	0.07
696.163	0.08
696.487	0.08
696.811	0.07
697.135	0.08
697.458	0.08
697.782	0.07
698.106	0.07
698.429	0.08
698.753	0.08
699.076	0.08
699.4	0.06
699.723	0.07
700.046	0.07
700.37	0.08
700.693	0.08
701.016	0.07
701.339	0.08
701.662	0.08
701.985	0.07
702.308	0.07
702.631	0.08
702.954	0.08
703.277	0.07
703.599	0.08
703.922	0.07
704.245	0.07
704.567	0.06
704.89	0.07
705.212	0.07
705.535	0.06
705.857	0.07
706.179	0.06
706.502	0.06
706.824	0.05
707.146	0.06
707.468	0.06
707.79	0.06
708.112	0.07
708.434	0.07
708.756	0.07
709.078	0.06
709.399	0.07
709.721	0.06
710.043	0.07
710.364	0.07
710.686	0.07
711.007	0.06
711.329	0.08
711.65	0.07
711.972	0.07
712.293	0.07
712.614	0.07
712.935	0.07
713.256	0.08
713.577	0.07
713.898	0.06
714.219	0.06
714.54	0.07
714.861	0.06
715.182	0.07
715.503	0.07
715.823	0.07
716.144	0.06
716.464	0.06
716.785	0.06
717.105	0.06
717.426	0.06
717.746	0.06
718.066	0.05
718.387	0.05
718.707	0.05
719.027	0.06
719.347	0.05
719.667	0.06
719.987	0.05
720.307	0.05
720.627	0.05
720.947	0.06
721.266	0.06
721.586	0.05
721.906	0.06
722.225	0.05
722.545	0.05
722.864	0.05
723.184	0.06
723.503	0.05
723.823	0.06
724.142	0.05
724.461	0.06
724.78	0.05
725.099	0.05
