Data from 12-12-AQDScycling_Absorbance__683__00683.txt Node

Date: Tue Dec 12 13:47:29 EST 2023
User: kyuminlee
Spectrometer: FLMS00943
Trigger mode: 0
Integration Time (sec): 1.000000E-1
Scans to average: 1
Electric dark correction enabled: true
Nonlinearity correction enabled: false
Boxcar width: 0
XAxis mode: Wavelengths
Number of Pixels in Spectrum: 2048
>>>>>Begin Spectral Data<<<<<
179.651	-0
180.037	-0
180.424	-0
180.81	-0.29
181.197	-0.11
181.583	-0.74
181.97	-0.36
182.356	-0
182.743	-0
183.129	0.39
183.515	0.82
183.901	-1.76
184.288	0.1
184.674	-0
185.06	-0.67
185.446	-0.51
185.832	-0
186.218	-0.11
186.604	-0.17
186.99	0.24
187.376	-0
187.762	-0.14
188.148	0.48
188.534	-0
188.92	0.17
189.305	0.02
189.691	0.1
190.077	0.21
190.463	0.05
190.848	-0.01
191.234	-0
191.619	0.15
192.005	0.04
192.391	0.34
192.776	0.19
193.161	0.04
193.547	0.11
193.932	-0.09
194.318	0.07
194.703	0.28
195.088	0.2
195.473	0.12
195.859	0.17
196.244	0.1
196.629	0.1
197.014	0.04
197.399	0.17
197.784	0.13
198.169	0.08
198.554	0.15
198.939	0.09
199.324	0.07
199.709	0.06
200.094	0.1
200.478	0
200.863	0.17
201.248	0.05
201.633	0.14
202.017	0.16
202.402	0.05
202.787	0.07
203.171	0.3
203.556	0.1
203.94	0.15
204.325	0.17
204.709	0.22
205.093	0.13
205.478	0.1
205.862	0.13
206.246	0.28
206.631	0.06
207.015	0.05
207.399	0.19
207.783	0.03
208.167	0.16
208.551	0.14
208.935	0.2
209.319	0.14
209.703	0.09
210.087	0.09
210.471	0.09
210.855	0.15
211.239	0.23
211.623	0.29
212.007	0.41
212.39	0.43
212.774	0.12
213.158	0.19
213.541	0.09
213.925	0.18
214.309	0.18
214.692	0.33
215.076	0.29
215.459	0.12
215.842	0.11
216.226	0.31
216.609	0.26
216.993	0.19
217.376	0.45
217.759	0.18
218.142	0.35
218.525	0.49
218.909	0.26
219.292	0.41
219.675	0.49
220.058	0.44
220.441	0.52
220.824	0.54
221.207	0.61
221.59	0.53
221.973	0.56
222.355	0.61
222.738	0.64
223.121	0.55
223.504	0.55
223.886	0.69
224.269	0.59
224.652	0.6
225.034	0.71
225.417	0.75
225.799	0.87
226.182	0.77
226.564	0.84
226.947	0.78
227.329	0.79
227.711	0.99
228.094	0.84
228.476	0.76
228.858	0.79
229.24	0.92
229.623	1.06
230.005	0.86
230.387	0.76
230.769	0.84
231.151	0.89
231.533	0.93
231.915	0.82
232.297	1.13
232.679	0.99
233.061	0.94
233.442	0.94
233.824	1.08
234.206	1.09
234.588	1.12
234.969	1.11
235.351	1
235.733	1.04
236.114	1.28
236.496	1.12
236.877	1.06
237.259	1.01
237.64	1.08
238.022	0.96
238.403	1.1
238.784	0.96
239.165	0.93
239.547	1.06
239.928	1.1
240.309	1.1
240.69	1.08
241.071	1.02
241.452	1.17
241.834	1.07
242.215	1.11
242.595	1.12
242.976	1.15
243.357	1.12
243.738	0.97
244.119	1.24
244.5	1.12
244.881	1.25
245.261	1.21
245.642	1.18
246.023	1.2
246.403	1.19
246.784	1.24
247.164	1.25
247.545	1.13
247.925	1.33
248.306	1.24
248.686	1.54
249.067	1.2
249.447	1.37
249.827	1.55
250.207	1.36
250.588	1.23
250.968	1.4
251.348	1.25
251.728	1.48
252.108	1.59
252.488	1.35
252.868	1.33
253.248	1.21
253.628	1.44
254.008	1.69
254.388	1.29
254.768	1.28
255.147	1.45
255.527	1.41
255.907	1.33
256.287	1.41
256.666	1.23
257.046	1.45
257.425	1.5
257.805	1.39
258.184	1.26
258.564	1.4
258.943	1.35
259.323	1.43
259.702	1.39
260.081	1.38
260.461	1.46
260.84	1.57
261.219	1.6
261.598	1.47
261.977	1.53
262.356	1.55
262.736	1.39
263.115	1.61
263.494	1.39
263.873	1.36
264.251	1.52
264.63	1.63
265.009	1.43
265.388	1.45
265.767	1.33
266.145	1.41
266.524	1.45
266.903	1.45
267.281	1.45
267.66	1.58
268.039	1.42
268.417	1.44
268.796	1.35
269.174	1.35
269.552	1.3
269.931	1.33
270.309	1.4
270.687	1.48
271.066	1.82
271.444	1.42
271.822	1.53
272.2	1.36
272.578	1.43
272.956	1.37
273.334	1.45
273.712	1.45
274.09	1.37
274.468	1.42
274.846	1.25
275.224	1.51
275.602	1.52
275.98	1.7
276.357	1.46
276.735	1.54
277.113	1.6
277.49	1.34
277.868	1.35
278.246	1.46
278.623	1.23
279.001	1.23
279.378	1.43
279.756	1.42
280.133	1.59
280.51	1.44
280.888	1.42
281.265	1.35
281.642	1.57
282.019	1.47
282.396	1.54
282.773	1.42
283.151	1.47
283.528	1.41
283.905	1.46
284.282	1.51
284.659	1.49
285.035	1.41
285.412	1.35
285.789	1.46
286.166	1.56
286.543	1.41
286.919	1.6
287.296	1.38
287.673	1.53
288.049	1.64
288.426	1.47
288.802	1.44
289.179	1.54
289.555	1.54
289.932	1.47
290.308	1.35
290.684	1.35
291.061	1.26
291.437	1.49
291.813	1.44
292.189	1.29
292.565	1.31
292.942	1.27
293.318	1.34
293.694	1.49
294.07	1.35
294.446	1.35
294.822	1.58
295.197	1.37
295.573	1.38
295.949	1.53
296.325	1.55
296.701	1.56
297.076	1.57
297.452	1.62
297.828	1.52
298.203	1.83
298.579	1.37
298.954	1.38
299.33	1.4
299.705	1.46
300.081	1.58
300.456	1.64
300.831	1.51
301.206	1.39
301.582	1.55
301.957	1.42
302.332	1.73
302.707	1.5
303.082	1.44
303.457	1.48
303.832	1.48
304.207	1.36
304.582	1.41
304.957	1.48
305.332	1.61
305.707	1.56
306.082	1.55
306.456	1.65
306.831	1.46
307.206	1.57
307.58	1.41
307.955	1.39
308.33	1.46
308.704	1.51
309.079	1.36
309.453	1.72
309.828	1.49
310.202	1.44
310.576	1.46
310.951	1.57
311.325	1.7
311.699	1.59
312.073	1.43
312.447	1.45
312.821	1.4
313.196	1.6
313.57	1.47
313.944	1.41
314.317	1.36
314.691	1.49
315.065	1.53
315.439	1.59
315.813	1.58
316.187	1.4
316.56	1.55
316.934	1.6
317.308	1.49
317.681	1.69
318.055	1.44
318.428	1.57
318.802	1.66
319.175	1.31
319.549	1.57
319.922	1.37
320.295	1.41
320.669	1.58
321.042	1.55
321.415	1.81
321.788	1.46
322.162	1.44
322.535	1.66
322.908	1.57
323.281	1.43
323.654	1.66
324.027	1.39
324.4	1.57
324.773	1.52
325.145	1.52
325.518	1.58
325.891	1.4
326.264	1.78
326.636	1.46
327.009	1.48
327.382	1.45
327.754	1.65
328.127	1.41
328.499	1.53
328.872	1.43
329.244	1.5
329.616	1.63
329.989	1.56
330.361	1.58
330.733	1.42
331.106	1.4
331.478	1.62
331.85	1.43
332.222	1.46
332.594	1.52
332.966	1.53
333.338	1.57
333.71	1.47
334.082	1.61
334.454	1.46
334.826	1.65
335.197	1.71
335.569	1.43
335.941	1.51
336.312	1.55
336.684	1.4
337.056	1.49
337.427	1.58
337.799	1.52
338.17	1.57
338.542	1.42
338.913	1.6
339.284	1.65
339.656	1.55
340.027	1.53
340.398	1.5
340.769	1.58
341.141	1.68
341.512	1.56
341.883	1.53
342.254	1.53
342.625	1.65
342.996	1.54
343.367	1.51
343.738	1.71
344.108	1.36
344.479	1.7
344.85	1.44
345.221	1.46
345.591	1.36
345.962	1.46
346.333	1.68
346.703	1.28
347.074	1.32
347.444	1.31
347.815	1.37
348.185	1.42
348.556	1.42
348.926	1.33
349.296	1.3
349.666	1.43
350.037	1.3
350.407	1.3
350.777	1.38
351.147	1.45
351.517	1.32
351.887	1.36
352.257	1.44
352.627	1.25
352.997	1.29
353.367	1.41
353.737	1.37
354.106	1.39
354.476	1.27
354.846	1.42
355.216	1.41
355.585	1.35
355.955	1.37
356.324	1.34
356.694	1.32
357.063	1.31
357.433	1.28
357.802	1.32
358.171	1.35
358.541	1.26
358.91	1.28
359.279	1.29
359.648	1.27
360.017	1.3
360.387	1.18
360.756	1.17
361.125	1.2
361.494	1.18
361.863	1.2
362.231	1.17
362.6	1.2
362.969	1.13
363.338	1.1
363.707	1.12
364.075	1.12
364.444	1.09
364.813	1.12
365.181	1.08
365.55	1.08
365.918	1.08
366.287	1.07
366.655	1.04
367.024	1.06
367.392	1.07
367.76	1.02
368.128	1.02
368.497	1.02
368.865	1.02
369.233	1.01
369.601	1
369.969	0.98
370.337	1.02
370.705	1
371.073	0.98
371.441	0.99
371.809	0.96
372.177	0.95
372.544	0.93
372.912	0.98
373.28	0.96
373.647	0.94
374.015	1.01
374.383	0.99
374.75	1.03
375.118	0.92
375.485	0.99
375.853	0.96
376.22	0.93
376.587	0.93
376.955	1.02
377.322	0.97
377.689	0.95
378.056	0.94
378.423	0.91
378.79	0.97
379.157	0.94
379.524	0.94
379.891	0.94
380.258	0.95
380.625	0.96
380.992	0.93
381.359	0.99
381.726	1
382.092	0.97
382.459	0.97
382.826	0.97
383.192	1.02
383.559	1.04
383.925	1
384.292	0.98
384.658	1.05
385.025	1.02
385.391	1
385.757	1.04
386.123	1.04
386.49	1.06
386.856	1.09
387.222	1.04
387.588	1.02
387.954	1.12
388.32	1.06
388.686	1.07
389.052	1.01
389.418	1.09
389.784	1.01
390.15	1.07
390.515	1.01
390.881	1.07
391.247	1.09
391.613	1.08
391.978	1.01
392.344	1.06
392.709	1.05
393.075	1.08
393.44	1.05
393.806	1
394.171	1.01
394.536	0.98
394.902	1.05
395.267	1.05
395.632	1
395.997	1.08
396.362	1.01
396.727	1.1
397.092	1.05
397.457	1.07
397.822	1.04
398.187	1.01
398.552	0.97
398.917	1
399.282	0.97
399.646	0.97
400.011	1
400.376	0.98
400.74	0.99
401.105	0.96
401.47	1
401.834	0.97
402.199	0.96
402.563	0.92
402.927	0.9
403.292	0.95
403.656	0.92
404.02	0.95
404.384	0.93
404.749	0.92
405.113	0.9
405.477	0.9
405.841	0.87
406.205	0.89
406.569	0.88
406.933	0.83
407.296	0.85
407.66	0.82
408.024	0.85
408.388	0.87
408.752	0.82
409.115	0.84
409.479	0.84
409.842	0.83
410.206	0.79
410.569	0.82
410.933	0.81
411.296	0.78
411.66	0.81
412.023	0.77
412.386	0.76
412.749	0.76
413.113	0.77
413.476	0.71
413.839	0.73
414.202	0.72
414.565	0.74
414.928	0.75
415.291	0.7
415.654	0.74
416.017	0.73
416.38	0.72
416.742	0.72
417.105	0.7
417.468	0.71
417.83	0.71
418.193	0.72
418.556	0.68
418.918	0.72
419.281	0.7
419.643	0.73
420.005	0.72
420.368	0.71
420.73	0.69
421.092	0.71
421.455	0.7
421.817	0.66
422.179	0.68
422.541	0.68
422.903	0.72
423.265	0.71
423.627	0.66
423.989	0.67
424.351	0.66
424.713	0.69
425.075	0.65
425.436	0.65
425.798	0.65
426.16	0.66
426.521	0.67
426.883	0.66
427.245	0.65
427.606	0.65
427.967	0.64
428.329	0.64
428.69	0.67
429.052	0.67
429.413	0.66
429.774	0.66
430.135	0.65
430.497	0.63
430.858	0.62
431.219	0.64
431.58	0.6
431.941	0.61
432.302	0.63
432.663	0.62
433.024	0.62
433.384	0.63
433.745	0.61
434.106	0.63
434.467	0.63
434.827	0.62
435.188	0.62
435.548	0.64
435.909	0.63
436.269	0.63
436.63	0.6
436.99	0.59
437.351	0.6
437.711	0.61
438.071	0.58
438.431	0.59
438.792	0.59
439.152	0.58
439.512	0.58
439.872	0.57
440.232	0.59
440.592	0.59
440.952	0.58
441.312	0.56
441.671	0.59
442.031	0.57
442.391	0.57
442.751	0.58
443.11	0.55
443.47	0.55
443.83	0.55
444.189	0.54
444.549	0.54
444.908	0.53
445.267	0.53
445.627	0.53
445.986	0.52
446.345	0.51
446.705	0.53
447.064	0.53
447.423	0.52
447.782	0.5
448.141	0.51
448.5	0.5
448.859	0.5
449.218	0.51
449.577	0.51
449.936	0.51
450.295	0.5
450.653	0.5
451.012	0.5
451.371	0.49
451.729	0.49
452.088	0.49
452.447	0.49
452.805	0.49
453.163	0.49
453.522	0.48
453.88	0.47
454.239	0.47
454.597	0.47
454.955	0.45
455.313	0.45
455.671	0.45
456.029	0.45
456.388	0.45
456.746	0.44
457.104	0.44
457.461	0.43
457.819	0.43
458.177	0.42
458.535	0.42
458.893	0.41
459.25	0.41
459.608	0.41
459.966	0.41
460.323	0.4
460.681	0.39
461.038	0.39
461.396	0.38
461.753	0.38
462.111	0.38
462.468	0.37
462.825	0.37
463.182	0.37
463.54	0.36
463.897	0.36
464.254	0.35
464.611	0.36
464.968	0.35
465.325	0.34
465.682	0.34
466.039	0.34
466.395	0.34
466.752	0.33
467.109	0.33
467.466	0.33
467.822	0.33
468.179	0.32
468.535	0.32
468.892	0.32
469.248	0.31
469.605	0.31
469.961	0.3
470.318	0.31
470.674	0.3
471.03	0.3
471.386	0.29
471.743	0.29
472.099	0.29
472.455	0.29
472.811	0.28
473.167	0.28
473.523	0.27
473.879	0.28
474.235	0.27
474.59	0.26
474.946	0.27
475.302	0.27
475.657	0.25
476.013	0.25
476.369	0.24
476.724	0.25
477.08	0.25
477.435	0.24
477.791	0.24
478.146	0.24
478.501	0.24
478.857	0.24
479.212	0.23
479.567	0.22
479.922	0.22
480.277	0.22
480.632	0.21
480.987	0.22
481.342	0.22
481.697	0.2
482.052	0.21
482.407	0.2
482.762	0.2
483.116	0.2
483.471	0.2
483.826	0.19
484.18	0.2
484.535	0.19
484.89	0.19
485.244	0.19
485.598	0.19
485.953	0.18
486.307	0.18
486.661	0.19
487.016	0.18
487.37	0.18
487.724	0.18
488.078	0.18
488.432	0.18
488.786	0.18
489.14	0.17
489.494	0.16
489.848	0.16
490.202	0.16
490.556	0.16
490.91	0.16
491.263	0.17
491.617	0.16
491.971	0.16
492.324	0.16
492.678	0.16
493.031	0.16
493.385	0.16
493.738	0.15
494.091	0.15
494.445	0.15
494.798	0.15
495.151	0.15
495.504	0.16
495.857	0.15
496.21	0.15
496.564	0.14
496.916	0.14
497.269	0.14
497.622	0.14
497.975	0.14
498.328	0.15
498.681	0.13
499.033	0.13
499.386	0.14
499.739	0.14
500.091	0.13
500.444	0.13
500.796	0.14
501.149	0.13
501.501	0.14
501.854	0.13
502.206	0.13
502.558	0.13
502.91	0.14
503.263	0.14
503.615	0.14
503.967	0.13
504.319	0.14
504.671	0.13
505.023	0.13
505.375	0.13
505.726	0.13
506.078	0.13
506.43	0.13
506.782	0.13
507.133	0.13
507.485	0.14
507.837	0.14
508.188	0.12
508.54	0.13
508.891	0.14
509.243	0.13
509.594	0.13
509.945	0.13
510.296	0.12
510.648	0.13
510.999	0.12
511.35	0.13
511.701	0.12
512.052	0.13
512.403	0.13
512.754	0.13
513.105	0.13
513.456	0.12
513.807	0.12
514.157	0.13
514.508	0.12
514.859	0.12
515.209	0.12
515.56	0.13
515.91	0.12
516.261	0.12
516.611	0.12
516.962	0.12
517.312	0.12
517.662	0.12
518.013	0.13
518.363	0.13
518.713	0.13
519.063	0.13
519.413	0.13
519.763	0.13
520.113	0.13
520.463	0.13
520.813	0.13
521.163	0.13
521.512	0.13
521.862	0.13
522.212	0.13
522.562	0.13
522.911	0.12
523.261	0.13
523.61	0.13
523.96	0.13
524.309	0.13
524.658	0.14
525.008	0.12
525.357	0.13
525.706	0.13
526.056	0.13
526.405	0.13
526.754	0.12
527.103	0.12
527.452	0.12
527.801	0.13
528.15	0.13
528.499	0.13
528.847	0.13
529.196	0.14
529.545	0.14
529.893	0.13
530.242	0.13
530.591	0.13
530.939	0.14
531.288	0.13
531.636	0.14
531.985	0.14
532.333	0.13
532.681	0.14
533.029	0.13
533.378	0.14
533.726	0.14
534.074	0.14
534.422	0.13
534.77	0.13
535.118	0.14
535.466	0.13
535.814	0.14
536.162	0.14
536.509	0.14
536.857	0.13
537.205	0.14
537.552	0.14
537.9	0.14
538.248	0.13
538.595	0.14
538.943	0.15
539.29	0.14
539.637	0.14
539.985	0.14
540.332	0.14
540.679	0.14
541.026	0.13
541.373	0.13
541.721	0.13
542.068	0.13
542.415	0.14
542.762	0.13
543.108	0.13
543.455	0.12
543.802	0.13
544.149	0.13
544.496	0.14
544.842	0.12
545.189	0.12
545.535	0.12
545.882	0.12
546.228	0.12
546.575	0.12
546.921	0.12
547.267	0.12
547.614	0.12
547.96	0.13
548.306	0.13
548.652	0.13
548.998	0.13
549.344	0.12
549.69	0.13
550.036	0.13
550.382	0.13
550.728	0.12
551.074	0.13
551.42	0.14
551.765	0.13
552.111	0.13
552.457	0.14
552.802	0.13
553.148	0.13
553.493	0.13
553.839	0.13
554.184	0.14
554.529	0.13
554.875	0.13
555.22	0.14
555.565	0.14
555.91	0.13
556.255	0.14
556.6	0.14
556.945	0.13
557.29	0.13
557.635	0.14
557.98	0.13
558.325	0.14
558.67	0.13
559.014	0.14
559.359	0.14
559.704	0.13
560.048	0.12
560.393	0.13
560.737	0.12
561.082	0.13
561.426	0.13
561.77	0.13
562.115	0.12
562.459	0.13
562.803	0.13
563.147	0.13
563.491	0.13
563.835	0.14
564.179	0.13
564.523	0.13
564.867	0.12
565.211	0.14
565.555	0.13
565.899	0.14
566.242	0.13
566.586	0.13
566.93	0.13
567.273	0.14
567.617	0.14
567.96	0.14
568.304	0.14
568.647	0.14
568.99	0.13
569.334	0.14
569.677	0.14
570.02	0.14
570.363	0.14
570.706	0.14
571.049	0.14
571.392	0.14
571.735	0.13
572.078	0.14
572.421	0.14
572.764	0.14
573.106	0.14
573.449	0.14
573.792	0.14
574.134	0.14
574.477	0.14
574.819	0.14
575.162	0.13
575.504	0.13
575.847	0.13
576.189	0.13
576.531	0.14
576.873	0.14
577.215	0.13
577.558	0.14
577.9	0.13
578.242	0.14
578.584	0.13
578.926	0.14
579.267	0.13
579.609	0.14
579.951	0.13
580.293	0.14
580.634	0.14
580.976	0.14
581.318	0.14
581.659	0.13
582.001	0.14
582.342	0.13
582.683	0.14
583.025	0.13
583.366	0.12
583.707	0.14
584.049	0.13
584.39	0.13
584.731	0.13
585.072	0.13
585.413	0.14
585.754	0.13
586.095	0.13
586.435	0.13
586.776	0.13
587.117	0.13
587.458	0.13
587.798	0.13
588.139	0.14
588.48	0.13
588.82	0.14
589.161	0.13
589.501	0.13
589.841	0.13
590.182	0.13
590.522	0.13
590.862	0.14
591.202	0.13
591.542	0.13
591.882	0.13
592.222	0.13
592.562	0.13
592.902	0.13
593.242	0.13
593.582	0.14
593.922	0.13
594.261	0.13
594.601	0.12
594.941	0.12
595.28	0.13
595.62	0.13
595.959	0.13
596.299	0.13
596.638	0.13
596.977	0.13
597.317	0.14
597.656	0.13
597.995	0.13
598.334	0.14
598.673	0.14
599.012	0.14
599.351	0.14
599.69	0.14
600.029	0.14
600.368	0.14
600.707	0.15
601.046	0.14
601.384	0.14
601.723	0.15
602.061	0.13
602.4	0.14
602.738	0.14
603.077	0.14
603.415	0.13
603.754	0.14
604.092	0.13
604.43	0.14
604.768	0.14
605.107	0.14
605.445	0.13
605.783	0.13
606.121	0.13
606.459	0.14
606.796	0.13
607.134	0.13
607.472	0.13
607.81	0.13
608.148	0.13
608.485	0.14
608.823	0.13
609.16	0.13
609.498	0.13
609.835	0.12
610.173	0.13
610.51	0.13
610.847	0.13
611.185	0.13
611.522	0.13
611.859	0.14
612.196	0.13
612.533	0.14
612.87	0.14
613.207	0.14
613.544	0.13
613.881	0.14
614.217	0.14
614.554	0.13
614.891	0.14
615.228	0.15
615.564	0.14
615.901	0.14
616.237	0.15
616.574	0.14
616.91	0.14
617.246	0.14
617.583	0.14
617.919	0.14
618.255	0.15
618.591	0.14
618.927	0.14
619.263	0.15
619.599	0.14
619.935	0.14
620.271	0.14
620.607	0.14
620.943	0.13
621.279	0.14
621.614	0.14
621.95	0.15
622.286	0.14
622.621	0.14
622.957	0.14
623.292	0.13
623.627	0.14
623.963	0.14
624.298	0.14
624.633	0.13
624.968	0.13
625.304	0.13
625.639	0.13
625.974	0.13
626.309	0.12
626.644	0.13
626.979	0.14
627.313	0.13
627.648	0.13
627.983	0.13
628.318	0.13
628.652	0.12
628.987	0.12
629.321	0.13
629.656	0.12
629.99	0.12
630.325	0.12
630.659	0.12
630.993	0.12
631.327	0.13
631.662	0.12
631.996	0.11
632.33	0.12
632.664	0.12
632.998	0.12
633.332	0.11
633.666	0.12
633.999	0.12
634.333	0.12
634.667	0.12
635.001	0.11
635.334	0.12
635.668	0.12
636.001	0.12
636.335	0.12
636.668	0.12
637.001	0.11
637.335	0.12
637.668	0.12
638.001	0.11
638.334	0.12
638.668	0.11
639.001	0.11
639.334	0.12
639.667	0.12
639.999	0.12
640.332	0.12
640.665	0.11
640.998	0.12
641.331	0.12
641.663	0.12
641.996	0.12
642.328	0.12
642.661	0.12
642.993	0.12
643.326	0.12
643.658	0.12
643.99	0.11
644.323	0.12
644.655	0.12
644.987	0.11
645.319	0.13
645.651	0.12
645.983	0.12
646.315	0.12
646.647	0.12
646.979	0.13
647.31	0.12
647.642	0.11
647.974	0.12
648.305	0.12
648.637	0.12
648.968	0.12
649.3	0.11
649.631	0.12
649.963	0.11
650.294	0.12
650.625	0.11
650.957	0.12
651.288	0.12
651.619	0.12
651.95	0.12
652.281	0.12
652.612	0.11
652.943	0.12
653.274	0.12
653.604	0.12
653.935	0.12
654.266	0.12
654.596	0.11
654.927	0.11
655.258	0.13
655.588	0.12
655.918	0.12
656.249	0.1
656.579	0.11
656.909	0.12
657.24	0.12
657.57	0.12
657.9	0.11
658.23	0.11
658.56	0.12
658.89	0.12
659.22	0.11
659.55	0.12
659.88	0.12
660.209	0.11
660.539	0.12
660.869	0.12
661.198	0.11
661.528	0.12
661.857	0.11
662.187	0.11
662.516	0.11
662.846	0.11
663.175	0.11
663.504	0.11
663.833	0.11
664.163	0.11
664.492	0.11
664.821	0.11
665.15	0.11
665.479	0.12
665.807	0.11
666.136	0.12
666.465	0.11
666.794	0.11
667.122	0.12
667.451	0.11
667.78	0.12
668.108	0.12
668.437	0.11
668.765	0.12
669.093	0.12
669.422	0.11
669.75	0.12
670.078	0.11
670.406	0.12
670.734	0.11
671.062	0.12
671.39	0.11
671.718	0.12
672.046	0.11
672.374	0.11
672.702	0.11
673.029	0.1
673.357	0.1
673.685	0.11
674.012	0.11
674.34	0.11
674.667	0.11
674.995	0.11
675.322	0.11
675.649	0.11
675.977	0.11
676.304	0.11
676.631	0.11
676.958	0.11
677.285	0.11
677.612	0.1
677.939	0.11
678.266	0.11
678.593	0.1
678.92	0.11
679.246	0.1
679.573	0.1
679.9	0.1
680.226	0.1
680.553	0.1
680.879	0.1
681.206	0.11
681.532	0.11
681.858	0.11
682.184	0.11
682.511	0.11
682.837	0.1
683.163	0.11
683.489	0.11
683.815	0.11
684.141	0.11
684.467	0.11
684.793	0.1
685.118	0.11
685.444	0.11
685.77	0.1
686.095	0.1
686.421	0.1
686.746	0.1
687.072	0.1
687.397	0.1
687.723	0.1
688.048	0.11
688.373	0.1
688.698	0.1
689.023	0.09
689.349	0.1
689.674	0.1
689.999	0.1
690.323	0.09
690.648	0.09
690.973	0.09
691.298	0.09
691.623	0.09
691.947	0.09
692.272	0.1
692.596	0.1
692.921	0.1
693.245	0.1
693.57	0.11
693.894	0.1
694.218	0.1
694.543	0.1
694.867	0.1
695.191	0.1
695.515	0.1
695.839	0.1
696.163	0.1
696.487	0.1
696.811	0.1
697.135	0.1
697.458	0.1
697.782	0.1
698.106	0.11
698.429	0.1
698.753	0.09
699.076	0.1
699.4	0.1
699.723	0.1
700.046	0.09
700.37	0.09
700.693	0.1
701.016	0.09
701.339	0.09
701.662	0.1
701.985	0.1
702.308	0.09
702.631	0.1
702.954	0.1
703.277	0.1
703.599	0.1
703.922	0.09
704.245	0.09
704.567	0.08
704.89	0.09
705.212	0.09
705.535	0.08
705.857	0.09
706.179	0.08
706.502	0.08
706.824	0.08
707.146	0.08
707.468	0.09
707.79	0.09
708.112	0.1
708.434	0.09
708.756	0.1
709.078	0.09
709.399	0.09
709.721	0.09
710.043	0.1
710.364	0.09
710.686	0.09
711.007	0.09
711.329	0.09
711.65	0.09
711.972	0.09
712.293	0.09
712.614	0.09
712.935	0.1
713.256	0.09
713.577	0.1
713.898	0.09
714.219	0.09
714.54	0.09
714.861	0.08
715.182	0.08
715.503	0.09
715.823	0.08
716.144	0.08
716.464	0.07
716.785	0.08
717.105	0.08
717.426	0.09
717.746	0.08
718.066	0.07
718.387	0.07
718.707	0.07
719.027	0.09
719.347	0.07
719.667	0.08
719.987	0.07
720.307	0.08
720.627	0.07
720.947	0.08
721.266	0.08
721.586	0.07
721.906	0.08
722.225	0.07
722.545	0.08
722.864	0.07
723.184	0.08
723.503	0.08
723.823	0.08
724.142	0.08
724.461	0.08
724.78	0.07
