Data from 12-12-AQDScycling_Absorbance__533__00533.txt Node

Date: Tue Dec 12 13:09:59 EST 2023
User: kyuminlee
Spectrometer: FLMS00943
Trigger mode: 0
Integration Time (sec): 1.000000E-1
Scans to average: 1
Electric dark correction enabled: true
Nonlinearity correction enabled: false
Boxcar width: 0
XAxis mode: Wavelengths
Number of Pixels in Spectrum: 2048
>>>>>Begin Spectral Data<<<<<
179.651	0.49
180.037	0.49
180.424	0.49
180.81	-0.59
181.197	0.52
181.583	-0
181.97	-0.62
182.356	-0
182.743	-1.11
183.129	0.31
183.515	0.44
183.901	-2.6
184.288	1.18
184.674	-0
185.06	-0
185.446	-0.24
185.832	-0.99
186.218	0.37
186.604	0.31
186.99	-0
187.376	0.51
187.762	-0
188.148	0.65
188.534	-0.04
188.92	0.12
189.305	0.15
189.691	0.2
190.077	0.19
190.463	0.16
190.848	-0.01
191.234	0.15
191.619	0.07
192.005	0.27
192.391	0.18
192.776	0.14
193.161	0.29
193.547	0.1
193.932	0.14
194.318	0.03
194.703	0.24
195.088	0.16
195.473	0.22
195.859	0.13
196.244	0.19
196.629	0.27
197.014	0.12
197.399	0.16
197.784	0.11
198.169	0.18
198.554	0.29
198.939	0.19
199.324	0.2
199.709	0.11
200.094	0.06
200.478	0.14
200.863	0.26
201.248	0.33
201.633	0.21
202.017	0.12
202.402	0.13
202.787	0.2
203.171	0.15
203.556	0.23
203.94	0.2
204.325	0.14
204.709	0.26
205.093	0.03
205.478	0.25
205.862	0.15
206.246	0.3
206.631	0.09
207.015	0.19
207.399	0.2
207.783	0.14
208.167	0.13
208.551	0.24
208.935	0.1
209.319	0.14
209.703	0.04
210.087	0.33
210.471	0.18
210.855	0.2
211.239	0.26
211.623	0.28
212.007	0.32
212.39	0.38
212.774	0.17
213.158	0.11
213.541	0.35
213.925	0.32
214.309	0.32
214.692	0.33
215.076	0.17
215.459	0.17
215.842	0.32
216.226	0.37
216.609	0.37
216.993	0.18
217.376	0.72
217.759	0.17
218.142	0.4
218.525	0.5
218.909	0.41
219.292	0.38
219.675	0.57
220.058	0.5
220.441	0.49
220.824	0.43
221.207	0.53
221.59	0.47
221.973	0.6
222.355	0.48
222.738	0.64
223.121	0.6
223.504	0.61
223.886	0.61
224.269	0.77
224.652	0.73
225.034	0.68
225.417	0.78
225.799	0.97
226.182	0.94
226.564	0.89
226.947	0.84
227.329	0.85
227.711	0.89
228.094	1.01
228.476	0.84
228.858	0.85
229.24	0.72
229.623	1.18
230.005	0.81
230.387	0.88
230.769	0.87
231.151	0.91
231.533	0.88
231.915	0.95
232.297	0.95
232.679	0.91
233.061	1.05
233.442	1.04
233.824	0.95
234.206	1.12
234.588	1.13
234.969	1.03
235.351	1.01
235.733	1.03
236.114	1.13
236.496	1.18
236.877	1.33
237.259	1.14
237.64	1.04
238.022	1.08
238.403	1.05
238.784	1.04
239.165	0.98
239.547	1
239.928	1.06
240.309	1.07
240.69	1.01
241.071	1.3
241.452	1.45
241.834	1.23
242.215	1.12
242.595	1.01
242.976	1.23
243.357	1.09
243.738	1.18
244.119	1.31
244.5	1.14
244.881	1.25
245.261	1.27
245.642	1.19
246.023	1.18
246.403	1.21
246.784	1.21
247.164	1.35
247.545	1.25
247.925	1.35
248.306	1.26
248.686	1.48
249.067	1.29
249.447	1.42
249.827	1.53
250.207	1.49
250.588	1.4
250.968	1.53
251.348	1.35
251.728	1.5
252.108	1.56
252.488	1.41
252.868	1.24
253.248	1.4
253.628	1.3
254.008	1.69
254.388	1.35
254.768	1.37
255.147	1.3
255.527	1.37
255.907	1.42
256.287	1.32
256.666	1.39
257.046	1.41
257.425	1.69
257.805	1.37
258.184	1.41
258.564	1.39
258.943	1.39
259.323	1.45
259.702	1.48
260.081	1.55
260.461	1.54
260.84	1.53
261.219	1.78
261.598	1.53
261.977	1.54
262.356	1.44
262.736	1.52
263.115	1.62
263.494	1.46
263.873	1.57
264.251	1.41
264.63	1.5
265.009	1.51
265.388	1.5
265.767	1.34
266.145	1.41
266.524	1.44
266.903	1.5
267.281	1.52
267.66	1.59
268.039	1.48
268.417	1.51
268.796	1.37
269.174	1.32
269.552	1.31
269.931	1.59
270.309	1.44
270.687	1.63
271.066	1.62
271.444	1.4
271.822	1.45
272.2	1.43
272.578	1.41
272.956	1.5
273.334	1.34
273.712	1.56
274.09	1.45
274.468	1.42
274.846	1.27
275.224	1.49
275.602	1.45
275.98	1.67
276.357	1.36
276.735	1.62
277.113	1.45
277.49	1.32
277.868	1.33
278.246	1.49
278.623	1.42
279.001	1.37
279.378	1.4
279.756	1.51
280.133	1.59
280.51	1.4
280.888	1.46
281.265	1.29
281.642	1.55
282.019	1.58
282.396	1.67
282.773	1.56
283.151	1.59
283.528	1.45
283.905	1.42
284.282	1.45
284.659	1.6
285.035	1.38
285.412	1.4
285.789	1.43
286.166	1.49
286.543	1.4
286.919	1.47
287.296	1.38
287.673	1.85
288.049	1.53
288.426	1.76
288.802	1.51
289.179	1.39
289.555	1.64
289.932	1.61
290.308	1.38
290.684	1.42
291.061	1.45
291.437	1.54
291.813	1.51
292.189	1.38
292.565	1.24
292.942	1.53
293.318	1.45
293.694	1.57
294.07	1.36
294.446	1.38
294.822	1.59
295.197	1.39
295.573	1.51
295.949	1.49
296.325	1.57
296.701	1.47
297.076	1.67
297.452	1.52
297.828	1.6
298.203	1.55
298.579	1.51
298.954	1.46
299.33	1.37
299.705	1.47
300.081	1.41
300.456	1.44
300.831	1.52
301.206	1.38
301.582	1.53
301.957	1.45
302.332	1.49
302.707	1.46
303.082	1.36
303.457	1.44
303.832	1.41
304.207	1.26
304.582	1.37
304.957	1.45
305.332	1.51
305.707	1.45
306.082	1.42
306.456	1.5
306.831	1.26
307.206	1.37
307.58	1.47
307.955	1.38
308.33	1.28
308.704	1.3
309.079	1.25
309.453	1.46
309.828	1.24
310.202	1.35
310.576	1.25
310.951	1.4
311.325	1.4
311.699	1.28
312.073	1.27
312.447	1.33
312.821	1.24
313.196	1.39
313.57	1.3
313.944	1.24
314.317	1.2
314.691	1.27
315.065	1.36
315.439	1.24
315.813	1.36
316.187	1.28
316.56	1.31
316.934	1.29
317.308	1.27
317.681	1.32
318.055	1.21
318.428	1.29
318.802	1.29
319.175	1.3
319.549	1.18
319.922	1.22
320.295	1.29
320.669	1.41
321.042	1.36
321.415	1.44
321.788	1.34
322.162	1.26
322.535	1.34
322.908	1.36
323.281	1.3
323.654	1.43
324.027	1.3
324.4	1.33
324.773	1.39
325.145	1.37
325.518	1.28
325.891	1.3
326.264	1.34
326.636	1.29
327.009	1.33
327.382	1.34
327.754	1.37
328.127	1.29
328.499	1.34
328.872	1.34
329.244	1.37
329.616	1.33
329.989	1.29
330.361	1.44
330.733	1.39
331.106	1.23
331.478	1.36
331.85	1.33
332.222	1.27
332.594	1.32
332.966	1.37
333.338	1.39
333.71	1.43
334.082	1.54
334.454	1.39
334.826	1.32
335.197	1.4
335.569	1.36
335.941	1.22
336.312	1.39
336.684	1.34
337.056	1.3
337.427	1.41
337.799	1.55
338.17	1.37
338.542	1.37
338.913	1.39
339.284	1.42
339.656	1.38
340.027	1.47
340.398	1.37
340.769	1.4
341.141	1.48
341.512	1.39
341.883	1.41
342.254	1.42
342.625	1.52
342.996	1.33
343.367	1.45
343.738	1.47
344.108	1.39
344.479	1.49
344.85	1.32
345.221	1.43
345.591	1.38
345.962	1.32
346.333	1.3
346.703	1.25
347.074	1.28
347.444	1.26
347.815	1.36
348.185	1.31
348.556	1.3
348.926	1.25
349.296	1.46
349.666	1.39
350.037	1.36
350.407	1.24
350.777	1.31
351.147	1.45
351.517	1.22
351.887	1.29
352.257	1.37
352.627	1.33
352.997	1.33
353.367	1.33
353.737	1.42
354.106	1.39
354.476	1.3
354.846	1.42
355.216	1.32
355.585	1.36
355.955	1.37
356.324	1.41
356.694	1.47
357.063	1.44
357.433	1.36
357.802	1.42
358.171	1.47
358.541	1.34
358.91	1.54
359.279	1.46
359.648	1.33
360.017	1.56
360.387	1.4
360.756	1.45
361.125	1.5
361.494	1.49
361.863	1.36
362.231	1.33
362.6	1.6
362.969	1.38
363.338	1.42
363.707	1.63
364.075	1.6
364.444	1.35
364.813	1.47
365.181	1.4
365.55	1.5
365.918	1.59
366.287	1.45
366.655	1.57
367.024	1.56
367.392	1.53
367.76	1.41
368.128	1.43
368.497	1.44
368.865	1.47
369.233	1.53
369.601	1.5
369.969	1.49
370.337	1.62
370.705	1.45
371.073	1.59
371.441	1.5
371.809	1.39
372.177	1.39
372.544	1.51
372.912	1.5
373.28	1.45
373.647	1.57
374.015	1.68
374.383	1.74
374.75	1.63
375.118	1.55
375.485	1.5
375.853	1.64
376.22	1.52
376.587	1.49
376.955	1.57
377.322	1.67
377.689	1.57
378.056	1.45
378.423	1.52
378.79	1.61
379.157	1.57
379.524	1.64
379.891	1.41
380.258	1.73
380.625	1.67
380.992	1.41
381.359	1.65
381.726	1.66
382.092	1.57
382.459	1.54
382.826	1.53
383.192	1.54
383.559	1.63
383.925	1.55
384.292	1.45
384.658	1.68
385.025	1.71
385.391	1.7
385.757	1.82
386.123	1.5
386.49	1.49
386.856	1.61
387.222	1.58
387.588	1.55
387.954	1.7
388.32	1.68
388.686	1.67
389.052	1.54
389.418	1.88
389.784	1.53
390.15	1.65
390.515	1.48
390.881	1.62
391.247	1.42
391.613	1.66
391.978	1.47
392.344	1.71
392.709	1.52
393.075	1.7
393.44	1.54
393.806	1.6
394.171	1.5
394.536	1.69
394.902	1.46
395.267	1.52
395.632	1.56
395.997	1.48
396.362	1.47
396.727	1.74
397.092	1.51
397.457	1.55
397.822	1.52
398.187	1.67
398.552	1.54
398.917	1.74
399.282	1.47
399.646	1.5
400.011	1.68
400.376	1.5
400.74	1.53
401.105	1.59
401.47	1.6
401.834	1.79
402.199	1.59
402.563	1.52
402.927	1.58
403.292	1.54
403.656	1.6
404.02	1.58
404.384	1.78
404.749	1.61
405.113	1.6
405.477	1.54
405.841	1.76
406.205	1.58
406.569	1.55
406.933	1.54
407.296	1.6
407.66	1.48
408.024	1.74
408.388	1.52
408.752	1.59
409.115	1.64
409.479	1.61
409.842	1.59
410.206	1.45
410.569	1.45
410.933	1.51
411.296	1.43
411.66	1.45
412.023	1.31
412.386	1.45
412.749	1.46
413.113	1.55
413.476	1.36
413.839	1.43
414.202	1.47
414.565	1.43
414.928	1.41
415.291	1.35
415.654	1.46
416.017	1.55
416.38	1.44
416.742	1.42
417.105	1.32
417.468	1.37
417.83	1.41
418.193	1.41
418.556	1.31
418.918	1.29
419.281	1.47
419.643	1.52
420.005	1.46
420.368	1.38
420.73	1.37
421.092	1.42
421.455	1.44
421.817	1.37
422.179	1.41
422.541	1.4
422.903	1.42
423.265	1.44
423.627	1.46
423.989	1.47
424.351	1.34
424.713	1.32
425.075	1.34
425.436	1.39
425.798	1.37
426.16	1.41
426.521	1.4
426.883	1.39
427.245	1.39
427.606	1.28
427.967	1.3
428.329	1.33
428.69	1.47
429.052	1.3
429.413	1.37
429.774	1.37
430.135	1.34
430.497	1.37
430.858	1.37
431.219	1.36
431.58	1.26
431.941	1.31
432.302	1.32
432.663	1.36
433.024	1.43
433.384	1.33
433.745	1.25
434.106	1.29
434.467	1.25
434.827	1.32
435.188	1.3
435.548	1.45
435.909	1.3
436.269	1.31
436.63	1.24
436.99	1.27
437.351	1.29
437.711	1.3
438.071	1.23
438.431	1.24
438.792	1.23
439.152	1.25
439.512	1.22
439.872	1.2
440.232	1.25
440.592	1.22
440.952	1.22
441.312	1.22
441.671	1.24
442.031	1.25
442.391	1.22
442.751	1.22
443.11	1.22
443.47	1.16
443.83	1.13
444.189	1.15
444.549	1.14
444.908	1.1
445.267	1.13
445.627	1.15
445.986	1.2
446.345	1.08
446.705	1.08
447.064	1.09
447.423	1.08
447.782	1.11
448.141	1.08
448.5	1.05
448.859	1.09
449.218	1.05
449.577	1.06
449.936	1.06
450.295	1.04
450.653	1.03
451.012	1.04
451.371	1.04
451.729	1.03
452.088	1.01
452.447	1.03
452.805	1.03
453.163	1
453.522	0.99
453.88	0.95
454.239	0.97
454.597	0.94
454.955	0.95
455.313	0.94
455.671	0.95
456.029	0.92
456.388	0.91
456.746	0.91
457.104	0.91
457.461	0.89
457.819	0.87
458.177	0.88
458.535	0.86
458.893	0.83
459.25	0.84
459.608	0.83
459.966	0.8
460.323	0.8
460.681	0.79
461.038	0.78
461.396	0.77
461.753	0.77
462.111	0.76
462.468	0.75
462.825	0.72
463.182	0.72
463.54	0.72
463.897	0.73
464.254	0.71
464.611	0.69
464.968	0.68
465.325	0.68
465.682	0.67
466.039	0.67
466.395	0.64
466.752	0.65
467.109	0.63
467.466	0.63
467.822	0.63
468.179	0.6
468.535	0.59
468.892	0.59
469.248	0.58
469.605	0.58
469.961	0.58
470.318	0.57
470.674	0.56
471.03	0.55
471.386	0.54
471.743	0.53
472.099	0.52
472.455	0.51
472.811	0.51
473.167	0.5
473.523	0.49
473.879	0.49
474.235	0.49
474.59	0.47
474.946	0.46
475.302	0.47
475.657	0.45
476.013	0.44
476.369	0.44
476.724	0.44
477.08	0.42
477.435	0.42
477.791	0.42
478.146	0.42
478.501	0.41
478.857	0.4
479.212	0.39
479.567	0.4
479.922	0.38
480.277	0.38
480.632	0.37
480.987	0.36
481.342	0.36
481.697	0.35
482.052	0.35
482.407	0.35
482.762	0.34
483.116	0.33
483.471	0.33
483.826	0.32
484.18	0.32
484.535	0.32
484.89	0.31
485.244	0.32
485.598	0.31
485.953	0.3
486.307	0.3
486.661	0.3
487.016	0.29
487.37	0.29
487.724	0.29
488.078	0.27
488.432	0.28
488.786	0.28
489.14	0.27
489.494	0.27
489.848	0.26
490.202	0.26
490.556	0.26
490.91	0.25
491.263	0.25
491.617	0.25
491.971	0.24
492.324	0.24
492.678	0.25
493.031	0.25
493.385	0.24
493.738	0.23
494.091	0.24
494.445	0.23
494.798	0.23
495.151	0.23
495.504	0.22
495.857	0.22
496.21	0.22
496.564	0.21
496.916	0.22
497.269	0.2
497.622	0.21
497.975	0.2
498.328	0.2
498.681	0.21
499.033	0.2
499.386	0.2
499.739	0.2
500.091	0.2
500.444	0.19
500.796	0.2
501.149	0.19
501.501	0.19
501.854	0.19
502.206	0.19
502.558	0.19
502.91	0.19
503.263	0.19
503.615	0.18
503.967	0.19
504.319	0.19
504.671	0.18
505.023	0.18
505.375	0.18
505.726	0.19
506.078	0.18
506.43	0.17
506.782	0.18
507.133	0.17
507.485	0.18
507.837	0.19
508.188	0.17
508.54	0.18
508.891	0.18
509.243	0.17
509.594	0.18
509.945	0.17
510.296	0.17
510.648	0.18
510.999	0.18
511.35	0.17
511.701	0.18
512.052	0.18
512.403	0.17
512.754	0.17
513.105	0.17
513.456	0.17
513.807	0.16
514.157	0.18
514.508	0.16
514.859	0.16
515.209	0.17
515.56	0.17
515.91	0.17
516.261	0.18
516.611	0.17
516.962	0.17
517.312	0.17
517.662	0.17
518.013	0.17
518.363	0.17
518.713	0.17
519.063	0.17
519.413	0.17
519.763	0.17
520.113	0.17
520.463	0.17
520.813	0.17
521.163	0.18
521.512	0.17
521.862	0.17
522.212	0.17
522.562	0.17
522.911	0.17
523.261	0.17
523.61	0.17
523.96	0.17
524.309	0.17
524.658	0.17
525.008	0.17
525.357	0.17
525.706	0.17
526.056	0.17
526.405	0.17
526.754	0.17
527.103	0.17
527.452	0.17
527.801	0.17
528.15	0.17
528.499	0.17
528.847	0.18
529.196	0.18
529.545	0.17
529.893	0.18
530.242	0.17
530.591	0.18
530.939	0.18
531.288	0.18
531.636	0.18
531.985	0.17
532.333	0.18
532.681	0.18
533.029	0.18
533.378	0.18
533.726	0.18
534.074	0.18
534.422	0.17
534.77	0.18
535.118	0.18
535.466	0.18
535.814	0.17
536.162	0.17
536.509	0.18
536.857	0.18
537.205	0.18
537.552	0.18
537.9	0.18
538.248	0.17
538.595	0.17
538.943	0.18
539.29	0.18
539.637	0.18
539.985	0.17
540.332	0.18
540.679	0.18
541.026	0.17
541.373	0.19
541.721	0.17
542.068	0.17
542.415	0.18
542.762	0.17
543.108	0.17
543.455	0.16
543.802	0.17
544.149	0.17
544.496	0.17
544.842	0.17
545.189	0.16
545.535	0.16
545.882	0.17
546.228	0.16
546.575	0.16
546.921	0.16
547.267	0.17
547.614	0.16
547.96	0.17
548.306	0.17
548.652	0.16
548.998	0.17
549.344	0.16
549.69	0.17
550.036	0.17
550.382	0.18
550.728	0.17
551.074	0.18
551.42	0.18
551.765	0.17
552.111	0.18
552.457	0.18
552.802	0.17
553.148	0.17
553.493	0.17
553.839	0.18
554.184	0.18
554.529	0.17
554.875	0.17
555.22	0.17
555.565	0.17
555.91	0.17
556.255	0.18
556.6	0.18
556.945	0.17
557.29	0.17
557.635	0.18
557.98	0.17
558.325	0.18
558.67	0.17
559.014	0.18
559.359	0.18
559.704	0.18
560.048	0.17
560.393	0.18
560.737	0.17
561.082	0.18
561.426	0.17
561.77	0.17
562.115	0.17
562.459	0.17
562.803	0.17
563.147	0.17
563.491	0.17
563.835	0.18
564.179	0.18
564.523	0.17
564.867	0.18
565.211	0.17
565.555	0.18
565.899	0.18
566.242	0.18
566.586	0.17
566.93	0.18
567.273	0.18
567.617	0.18
567.96	0.18
568.304	0.18
568.647	0.18
568.99	0.18
569.334	0.19
569.677	0.18
570.02	0.18
570.363	0.18
570.706	0.18
571.049	0.19
571.392	0.18
571.735	0.18
572.078	0.18
572.421	0.19
572.764	0.18
573.106	0.18
573.449	0.17
573.792	0.18
574.134	0.18
574.477	0.18
574.819	0.18
575.162	0.18
575.504	0.17
575.847	0.18
576.189	0.17
576.531	0.18
576.873	0.18
577.215	0.18
577.558	0.18
577.9	0.17
578.242	0.17
578.584	0.17
578.926	0.18
579.267	0.18
579.609	0.17
579.951	0.18
580.293	0.17
580.634	0.18
580.976	0.18
581.318	0.17
581.659	0.18
582.001	0.18
582.342	0.17
582.683	0.18
583.025	0.17
583.366	0.17
583.707	0.16
584.049	0.16
584.39	0.17
584.731	0.17
585.072	0.16
585.413	0.18
585.754	0.18
586.095	0.18
586.435	0.17
586.776	0.18
587.117	0.17
587.458	0.17
587.798	0.17
588.139	0.17
588.48	0.16
588.82	0.17
589.161	0.17
589.501	0.16
589.841	0.17
590.182	0.17
590.522	0.17
590.862	0.17
591.202	0.17
591.542	0.17
591.882	0.17
592.222	0.17
592.562	0.17
592.902	0.17
593.242	0.17
593.582	0.17
593.922	0.17
594.261	0.17
594.601	0.16
594.941	0.18
595.28	0.18
595.62	0.17
595.959	0.17
596.299	0.17
596.638	0.17
596.977	0.17
597.317	0.18
597.656	0.18
597.995	0.17
598.334	0.18
598.673	0.17
599.012	0.17
599.351	0.18
599.69	0.17
600.029	0.18
600.368	0.18
600.707	0.18
601.046	0.17
601.384	0.18
601.723	0.18
602.061	0.17
602.4	0.17
602.738	0.17
603.077	0.17
603.415	0.17
603.754	0.18
604.092	0.17
604.43	0.17
604.768	0.17
605.107	0.18
605.445	0.16
605.783	0.16
606.121	0.16
606.459	0.17
606.796	0.17
607.134	0.17
607.472	0.17
607.81	0.17
608.148	0.16
608.485	0.18
608.823	0.17
609.16	0.17
609.498	0.17
609.835	0.16
610.173	0.16
610.51	0.17
610.847	0.17
611.185	0.17
611.522	0.17
611.859	0.18
612.196	0.17
612.533	0.18
612.87	0.18
613.207	0.18
613.544	0.18
613.881	0.18
614.217	0.18
614.554	0.17
614.891	0.18
615.228	0.17
615.564	0.17
615.901	0.17
616.237	0.18
616.574	0.18
616.91	0.18
617.246	0.18
617.583	0.18
617.919	0.18
618.255	0.17
618.591	0.18
618.927	0.18
619.263	0.18
619.599	0.18
619.935	0.18
620.271	0.17
620.607	0.17
620.943	0.17
621.279	0.18
621.614	0.17
621.95	0.18
622.286	0.17
622.621	0.17
622.957	0.18
623.292	0.17
623.627	0.17
623.963	0.17
624.298	0.17
624.633	0.16
624.968	0.16
625.304	0.16
625.639	0.16
625.974	0.16
626.309	0.16
626.644	0.16
626.979	0.17
627.313	0.16
627.648	0.16
627.983	0.16
628.318	0.16
628.652	0.15
628.987	0.16
629.321	0.16
629.656	0.15
629.99	0.15
630.325	0.16
630.659	0.15
630.993	0.15
631.327	0.15
631.662	0.14
631.996	0.15
632.33	0.15
632.664	0.16
632.998	0.15
633.332	0.15
633.666	0.15
633.999	0.15
634.333	0.15
634.667	0.15
635.001	0.14
635.334	0.15
635.668	0.15
636.001	0.14
636.335	0.15
636.668	0.15
637.001	0.15
637.335	0.15
637.668	0.15
638.001	0.14
638.334	0.15
638.668	0.15
639.001	0.14
639.334	0.14
639.667	0.14
639.999	0.14
640.332	0.15
640.665	0.14
640.998	0.14
641.331	0.15
641.663	0.14
641.996	0.14
642.328	0.15
642.661	0.14
642.993	0.15
643.326	0.15
643.658	0.14
643.99	0.13
644.323	0.13
644.655	0.15
644.987	0.14
645.319	0.14
645.651	0.15
645.983	0.14
646.315	0.14
646.647	0.14
646.979	0.15
647.31	0.15
647.642	0.14
647.974	0.14
648.305	0.15
648.637	0.15
648.968	0.15
649.3	0.14
649.631	0.15
649.963	0.14
650.294	0.14
650.625	0.15
650.957	0.15
651.288	0.14
651.619	0.15
651.95	0.15
652.281	0.14
652.612	0.14
652.943	0.15
653.274	0.15
653.604	0.14
653.935	0.15
654.266	0.14
654.596	0.13
654.927	0.14
655.258	0.14
655.588	0.15
655.918	0.14
656.249	0.12
656.579	0.13
656.909	0.13
657.24	0.14
657.57	0.14
657.9	0.14
658.23	0.14
658.56	0.14
658.89	0.14
659.22	0.14
659.55	0.14
659.88	0.14
660.209	0.14
660.539	0.15
660.869	0.14
661.198	0.15
661.528	0.15
661.857	0.14
662.187	0.14
662.516	0.13
662.846	0.13
663.175	0.14
663.504	0.13
663.833	0.13
664.163	0.14
664.492	0.13
664.821	0.13
665.15	0.13
665.479	0.14
665.807	0.14
666.136	0.13
666.465	0.14
666.794	0.14
667.122	0.14
667.451	0.13
667.78	0.13
668.108	0.13
668.437	0.13
668.765	0.14
669.093	0.14
669.422	0.13
669.75	0.14
670.078	0.13
670.406	0.14
670.734	0.14
671.062	0.13
671.39	0.13
671.718	0.13
672.046	0.13
672.374	0.12
672.702	0.13
673.029	0.12
673.357	0.13
673.685	0.13
674.012	0.13
674.34	0.13
674.667	0.13
674.995	0.13
675.322	0.13
675.649	0.12
675.977	0.13
676.304	0.13
676.631	0.13
676.958	0.12
677.285	0.12
677.612	0.12
677.939	0.13
678.266	0.13
678.593	0.12
678.92	0.13
679.246	0.12
679.573	0.12
679.9	0.12
680.226	0.12
680.553	0.11
680.879	0.12
681.206	0.12
681.532	0.12
681.858	0.12
682.184	0.12
682.511	0.12
682.837	0.12
683.163	0.13
683.489	0.12
683.815	0.13
684.141	0.12
684.467	0.12
684.793	0.11
685.118	0.12
685.444	0.12
685.77	0.12
686.095	0.12
686.421	0.11
686.746	0.12
687.072	0.12
687.397	0.12
687.723	0.12
688.048	0.12
688.373	0.12
688.698	0.12
689.023	0.12
689.349	0.11
689.674	0.12
689.999	0.11
690.323	0.12
690.648	0.11
690.973	0.11
691.298	0.12
691.623	0.11
691.947	0.12
692.272	0.12
692.596	0.12
692.921	0.12
693.245	0.11
693.57	0.12
693.894	0.12
694.218	0.11
694.543	0.11
694.867	0.12
695.191	0.11
695.515	0.11
695.839	0.12
696.163	0.11
696.487	0.12
696.811	0.11
697.135	0.11
697.458	0.11
697.782	0.11
698.106	0.11
698.429	0.11
698.753	0.11
699.076	0.11
699.4	0.1
699.723	0.11
700.046	0.1
700.37	0.11
700.693	0.11
701.016	0.11
701.339	0.11
701.662	0.12
701.985	0.11
702.308	0.1
702.631	0.1
702.954	0.12
703.277	0.11
703.599	0.11
703.922	0.11
704.245	0.11
704.567	0.1
704.89	0.11
705.212	0.1
705.535	0.1
705.857	0.1
706.179	0.1
706.502	0.1
706.824	0.09
707.146	0.09
707.468	0.1
707.79	0.1
708.112	0.11
708.434	0.11
708.756	0.1
709.078	0.11
709.399	0.09
709.721	0.1
710.043	0.1
710.364	0.1
710.686	0.1
711.007	0.1
711.329	0.1
711.65	0.1
711.972	0.1
712.293	0.1
712.614	0.11
712.935	0.1
713.256	0.1
713.577	0.1
713.898	0.1
714.219	0.1
714.54	0.1
714.861	0.09
715.182	0.1
715.503	0.09
715.823	0.09
716.144	0.09
716.464	0.08
716.785	0.09
717.105	0.09
717.426	0.09
717.746	0.09
718.066	0.08
718.387	0.09
718.707	0.08
719.027	0.09
719.347	0.08
719.667	0.09
719.987	0.08
720.307	0.08
720.627	0.08
720.947	0.09
721.266	0.09
721.586	0.08
721.906	0.08
722.225	0.09
722.545	0.08
722.864	0.08
723.184	0.09
723.503	0.08
