Data from 12-12-AQDScycling_Absorbance__896__00896.txt Node

Date: Tue Dec 12 14:40:44 EST 2023
User: kyuminlee
Spectrometer: FLMS00943
Trigger mode: 0
Integration Time (sec): 1.000000E-1
Scans to average: 1
Electric dark correction enabled: true
Nonlinearity correction enabled: false
Boxcar width: 0
XAxis mode: Wavelengths
Number of Pixels in Spectrum: 2048
>>>>>Begin Spectral Data<<<<<
179.651	-0.31
180.037	-0.31
180.424	-0.31
180.81	-0.7
181.197	0.36
181.583	-0
181.97	-0.02
182.356	-0
182.743	-0
183.129	0.1
183.515	0.4
183.901	-0
184.288	0.12
184.674	-0.06
185.06	-0
185.446	0.47
185.832	-0
186.218	0.13
186.604	-0
186.99	-0
187.376	-0.13
187.762	-0.04
188.148	0.33
188.534	-0.28
188.92	0.11
189.305	0.05
189.691	0.16
190.077	0.13
190.463	0.22
190.848	0.08
191.234	0.13
191.619	0.05
192.005	0.07
192.391	0.12
192.776	0.13
193.161	0.3
193.547	0.14
193.932	0.17
194.318	0.18
194.703	0.15
195.088	0.12
195.473	0.27
195.859	0.23
196.244	0.17
196.629	0.04
197.014	0.12
197.399	0.15
197.784	0.14
198.169	0.22
198.554	0.14
198.939	0.09
199.324	0.24
199.709	0.04
200.094	0.06
200.478	0.22
200.863	0.21
201.248	0.3
201.633	0.19
202.017	0.21
202.402	0.4
202.787	0.17
203.171	0.06
203.556	0.21
203.94	0.08
204.325	0.33
204.709	0.1
205.093	0.16
205.478	0.16
205.862	0.13
206.246	0.27
206.631	0.04
207.015	0.09
207.399	0.22
207.783	0.18
208.167	0.12
208.551	0.16
208.935	0.27
209.319	0.21
209.703	0.21
210.087	0.3
210.471	0.1
210.855	0.3
211.239	0.33
211.623	0.24
212.007	0.25
212.39	0.27
212.774	0.18
213.158	0.04
213.541	0.32
213.925	0.27
214.309	0.34
214.692	0.23
215.076	0.22
215.459	0.23
215.842	0.21
216.226	0.33
216.609	0.35
216.993	0.27
217.376	0.57
217.759	0.25
218.142	0.31
218.525	0.6
218.909	0.35
219.292	0.3
219.675	0.34
220.058	0.5
220.441	0.51
220.824	0.55
221.207	0.59
221.59	0.44
221.973	0.55
222.355	0.49
222.738	0.67
223.121	0.51
223.504	0.51
223.886	0.67
224.269	0.82
224.652	0.6
225.034	0.74
225.417	0.73
225.799	0.83
226.182	0.86
226.564	0.82
226.947	0.8
227.329	0.88
227.711	0.79
228.094	0.87
228.476	0.93
228.858	0.78
229.24	0.79
229.623	1.05
230.005	0.95
230.387	0.96
230.769	0.79
231.151	0.97
231.533	0.95
231.915	0.94
232.297	1.09
232.679	1.01
233.061	0.99
233.442	0.99
233.824	1.04
234.206	1.16
234.588	1.02
234.969	1.08
235.351	1.04
235.733	1.05
236.114	1.28
236.496	0.99
236.877	1.04
237.259	1.22
237.64	1.05
238.022	1.05
238.403	1.03
238.784	0.94
239.165	0.97
239.547	1.16
239.928	1.12
240.309	1.07
240.69	1.1
241.071	1.2
241.452	1.04
241.834	1.11
242.215	1.13
242.595	1.04
242.976	1.14
243.357	1.17
243.738	0.99
244.119	1.2
244.5	1.1
244.881	1.26
245.261	1.26
245.642	1.15
246.023	1.22
246.403	1.11
246.784	1.22
247.164	1.35
247.545	1.44
247.925	1.3
248.306	1.2
248.686	1.46
249.067	1.29
249.447	1.48
249.827	1.92
250.207	1.34
250.588	1.29
250.968	1.48
251.348	1.42
251.728	1.44
252.108	1.34
252.488	1.38
252.868	1.4
253.248	1.31
253.628	1.29
254.008	1.44
254.388	1.28
254.768	1.39
255.147	1.45
255.527	1.43
255.907	1.31
256.287	1.37
256.666	1.46
257.046	1.63
257.425	1.44
257.805	1.29
258.184	1.35
258.564	1.34
258.943	1.32
259.323	1.47
259.702	1.54
260.081	1.44
260.461	1.45
260.84	1.49
261.219	1.54
261.598	1.52
261.977	1.53
262.356	1.59
262.736	1.44
263.115	1.78
263.494	1.44
263.873	1.46
264.251	1.49
264.63	1.43
265.009	1.59
265.388	1.43
265.767	1.39
266.145	1.53
266.524	1.51
266.903	1.42
267.281	1.43
267.66	1.66
268.039	1.6
268.417	1.41
268.796	1.34
269.174	1.42
269.552	1.25
269.931	1.56
270.309	1.4
270.687	1.66
271.066	1.51
271.444	1.33
271.822	1.52
272.2	1.5
272.578	1.4
272.956	1.4
273.334	1.31
273.712	1.56
274.09	1.38
274.468	1.31
274.846	1.24
275.224	1.39
275.602	1.5
275.98	1.52
276.357	1.4
276.735	1.4
277.113	1.47
277.49	1.39
277.868	1.39
278.246	1.45
278.623	1.25
279.001	1.45
279.378	1.41
279.756	1.45
280.133	1.46
280.51	1.36
280.888	1.5
281.265	1.41
281.642	1.42
282.019	1.5
282.396	1.63
282.773	1.44
283.151	1.54
283.528	1.46
283.905	1.49
284.282	1.69
284.659	1.6
285.035	1.41
285.412	1.29
285.789	1.44
286.166	1.48
286.543	1.38
286.919	1.45
287.296	1.48
287.673	1.57
288.049	1.39
288.426	1.56
288.802	1.65
289.179	1.41
289.555	1.56
289.932	1.4
290.308	1.31
290.684	1.37
291.061	1.35
291.437	1.66
291.813	1.46
292.189	1.26
292.565	1.45
292.942	1.43
293.318	1.46
293.694	1.48
294.07	1.27
294.446	1.32
294.822	1.61
295.197	1.39
295.573	1.48
295.949	1.51
296.325	1.54
296.701	1.53
297.076	1.56
297.452	1.52
297.828	1.52
298.203	1.71
298.579	1.39
298.954	1.39
299.33	1.41
299.705	1.53
300.081	1.47
300.456	1.56
300.831	1.47
301.206	1.4
301.582	1.49
301.957	1.42
302.332	1.59
302.707	1.42
303.082	1.39
303.457	1.58
303.832	1.44
304.207	1.32
304.582	1.4
304.957	1.44
305.332	1.56
305.707	1.39
306.082	1.38
306.456	1.4
306.831	1.36
307.206	1.34
307.58	1.38
307.955	1.35
308.33	1.36
308.704	1.39
309.079	1.37
309.453	1.56
309.828	1.33
310.202	1.3
310.576	1.22
310.951	1.29
311.325	1.36
311.699	1.29
312.073	1.24
312.447	1.31
312.821	1.32
313.196	1.41
313.57	1.26
313.944	1.31
314.317	1.34
314.691	1.48
315.065	1.29
315.439	1.4
315.813	1.35
316.187	1.29
316.56	1.42
316.934	1.32
317.308	1.25
317.681	1.33
318.055	1.36
318.428	1.36
318.802	1.35
319.175	1.29
319.549	1.34
319.922	1.34
320.295	1.27
320.669	1.44
321.042	1.43
321.415	1.58
321.788	1.42
322.162	1.34
322.535	1.43
322.908	1.41
323.281	1.31
323.654	1.38
324.027	1.35
324.4	1.33
324.773	1.35
325.145	1.41
325.518	1.41
325.891	1.35
326.264	1.42
326.636	1.35
327.009	1.37
327.382	1.26
327.754	1.66
328.127	1.33
328.499	1.45
328.872	1.36
329.244	1.3
329.616	1.3
329.989	1.34
330.361	1.44
330.733	1.38
331.106	1.38
331.478	1.37
331.85	1.4
332.222	1.32
332.594	1.47
332.966	1.37
333.338	1.47
333.71	1.46
334.082	1.53
334.454	1.35
334.826	1.41
335.197	1.39
335.569	1.35
335.941	1.28
336.312	1.37
336.684	1.31
337.056	1.49
337.427	1.49
337.799	1.45
338.17	1.36
338.542	1.29
338.913	1.5
339.284	1.43
339.656	1.43
340.027	1.37
340.398	1.45
340.769	1.41
341.141	1.5
341.512	1.37
341.883	1.49
342.254	1.41
342.625	1.43
342.996	1.53
343.367	1.32
343.738	1.47
344.108	1.37
344.479	1.4
344.85	1.34
345.221	1.45
345.591	1.3
345.962	1.52
346.333	1.35
346.703	1.27
347.074	1.3
347.444	1.35
347.815	1.38
348.185	1.37
348.556	1.22
348.926	1.33
349.296	1.31
349.666	1.33
350.037	1.24
350.407	1.2
350.777	1.29
351.147	1.4
351.517	1.42
351.887	1.28
352.257	1.45
352.627	1.35
352.997	1.27
353.367	1.31
353.737	1.41
354.106	1.35
354.476	1.33
354.846	1.36
355.216	1.53
355.585	1.5
355.955	1.38
356.324	1.47
356.694	1.4
357.063	1.37
357.433	1.41
357.802	1.38
358.171	1.41
358.541	1.37
358.91	1.46
359.279	1.53
359.648	1.33
360.017	1.44
360.387	1.46
360.756	1.39
361.125	1.47
361.494	1.59
361.863	1.35
362.231	1.32
362.6	1.45
362.969	1.57
363.338	1.42
363.707	1.64
364.075	1.58
364.444	1.3
364.813	1.41
365.181	1.46
365.55	1.38
365.918	1.61
366.287	1.44
366.655	1.64
367.024	1.54
367.392	1.51
367.76	1.34
368.128	1.43
368.497	1.4
368.865	1.41
369.233	1.54
369.601	1.38
369.969	1.46
370.337	1.46
370.705	1.41
371.073	1.65
371.441	1.43
371.809	1.4
372.177	1.42
372.544	1.49
372.912	1.43
373.28	1.38
373.647	1.59
374.015	1.64
374.383	1.63
374.75	1.61
375.118	1.5
375.485	1.46
375.853	1.47
376.22	1.47
376.587	1.46
376.955	1.49
377.322	1.54
377.689	1.45
378.056	1.48
378.423	1.55
378.79	1.53
379.157	1.52
379.524	1.49
379.891	1.41
380.258	1.59
380.625	1.53
380.992	1.48
381.359	1.63
381.726	1.77
382.092	1.62
382.459	1.52
382.826	1.48
383.192	1.57
383.559	1.48
383.925	1.5
384.292	1.35
384.658	1.76
385.025	1.6
385.391	1.59
385.757	1.52
386.123	1.61
386.49	1.57
386.856	1.62
387.222	1.6
387.588	1.66
387.954	1.77
388.32	1.6
388.686	1.55
389.052	1.6
389.418	1.6
389.784	1.51
390.15	1.86
390.515	1.42
390.881	1.78
391.247	1.5
391.613	1.76
391.978	1.44
392.344	1.54
392.709	1.54
393.075	1.58
393.44	1.62
393.806	1.51
394.171	1.4
394.536	1.53
394.902	1.6
395.267	1.58
395.632	1.53
395.997	1.45
396.362	1.58
396.727	1.61
397.092	1.61
397.457	1.63
397.822	1.52
398.187	1.61
398.552	1.6
398.917	1.71
399.282	1.47
399.646	1.59
400.011	1.79
400.376	1.46
400.74	1.55
401.105	1.46
401.47	1.49
401.834	1.52
402.199	1.54
402.563	1.51
402.927	1.56
403.292	1.57
403.656	1.51
404.02	1.59
404.384	1.63
404.749	1.46
405.113	1.56
405.477	1.63
405.841	1.57
406.205	1.52
406.569	1.42
406.933	1.51
407.296	1.51
407.66	1.53
408.024	1.43
408.388	1.6
408.752	1.64
409.115	1.63
409.479	1.48
409.842	1.37
410.206	1.35
410.569	1.38
410.933	1.44
411.296	1.39
411.66	1.47
412.023	1.37
412.386	1.5
412.749	1.32
413.113	1.38
413.476	1.3
413.839	1.41
414.202	1.41
414.565	1.27
414.928	1.34
415.291	1.34
415.654	1.38
416.017	1.5
416.38	1.32
416.742	1.29
417.105	1.4
417.468	1.37
417.83	1.3
418.193	1.46
418.556	1.35
418.918	1.33
419.281	1.38
419.643	1.41
420.005	1.37
420.368	1.38
420.73	1.31
421.092	1.48
421.455	1.37
421.817	1.26
422.179	1.34
422.541	1.3
422.903	1.36
423.265	1.45
423.627	1.32
423.989	1.32
424.351	1.27
424.713	1.31
425.075	1.32
425.436	1.24
425.798	1.24
426.16	1.33
426.521	1.29
426.883	1.34
427.245	1.35
427.606	1.24
427.967	1.18
428.329	1.31
428.69	1.4
429.052	1.19
429.413	1.25
429.774	1.28
430.135	1.32
430.497	1.34
430.858	1.3
431.219	1.24
431.58	1.29
431.941	1.23
432.302	1.23
432.663	1.28
433.024	1.31
433.384	1.24
433.745	1.21
434.106	1.28
434.467	1.21
434.827	1.21
435.188	1.24
435.548	1.27
435.909	1.25
436.269	1.3
436.63	1.21
436.99	1.2
437.351	1.19
437.711	1.23
438.071	1.2
438.431	1.22
438.792	1.2
439.152	1.16
439.512	1.15
439.872	1.15
440.232	1.18
440.592	1.2
440.952	1.17
441.312	1.11
441.671	1.13
442.031	1.15
442.391	1.13
442.751	1.14
443.11	1.15
443.47	1.07
443.83	1.1
444.189	1.11
444.549	1.05
444.908	1.08
445.267	1.1
445.627	1.09
445.986	1.05
446.345	1.06
446.705	1.09
447.064	1.04
447.423	1.03
447.782	1.03
448.141	1.04
448.5	1
448.859	1.02
449.218	1.01
449.577	1.01
449.936	0.98
450.295	0.99
450.653	0.98
451.012	0.97
451.371	0.96
451.729	0.97
452.088	0.96
452.447	0.97
452.805	0.95
453.163	0.94
453.522	0.93
453.88	0.92
454.239	0.92
454.597	0.91
454.955	0.9
455.313	0.89
455.671	0.89
456.029	0.88
456.388	0.86
456.746	0.85
457.104	0.85
457.461	0.83
457.819	0.83
458.177	0.8
458.535	0.82
458.893	0.81
459.25	0.8
459.608	0.79
459.966	0.78
460.323	0.76
460.681	0.74
461.038	0.75
461.396	0.73
461.753	0.74
462.111	0.72
462.468	0.7
462.825	0.7
463.182	0.69
463.54	0.68
463.897	0.69
464.254	0.67
464.611	0.66
464.968	0.66
465.325	0.65
465.682	0.64
466.039	0.64
466.395	0.61
466.752	0.62
467.109	0.6
467.466	0.6
467.822	0.6
468.179	0.58
468.535	0.59
468.892	0.57
469.248	0.54
469.605	0.56
469.961	0.54
470.318	0.55
470.674	0.53
471.03	0.53
471.386	0.52
471.743	0.5
472.099	0.51
472.455	0.49
472.811	0.48
473.167	0.48
473.523	0.47
473.879	0.47
474.235	0.47
474.59	0.45
474.946	0.46
475.302	0.45
475.657	0.44
476.013	0.43
476.369	0.43
476.724	0.43
477.08	0.42
477.435	0.41
477.791	0.4
478.146	0.41
478.501	0.4
478.857	0.39
479.212	0.38
479.567	0.37
479.922	0.37
480.277	0.37
480.632	0.36
480.987	0.35
481.342	0.35
481.697	0.34
482.052	0.34
482.407	0.33
482.762	0.33
483.116	0.32
483.471	0.31
483.826	0.31
484.18	0.31
484.535	0.3
484.89	0.3
485.244	0.3
485.598	0.3
485.953	0.29
486.307	0.29
486.661	0.28
487.016	0.27
487.37	0.28
487.724	0.27
488.078	0.27
488.432	0.27
488.786	0.26
489.14	0.26
489.494	0.25
489.848	0.25
490.202	0.25
490.556	0.25
490.91	0.25
491.263	0.24
491.617	0.24
491.971	0.24
492.324	0.23
492.678	0.23
493.031	0.23
493.385	0.23
493.738	0.23
494.091	0.22
494.445	0.23
494.798	0.22
495.151	0.22
495.504	0.22
495.857	0.22
496.21	0.22
496.564	0.21
496.916	0.22
497.269	0.21
497.622	0.22
497.975	0.21
498.328	0.21
498.681	0.2
499.033	0.2
499.386	0.2
499.739	0.2
500.091	0.19
500.444	0.19
500.796	0.2
501.149	0.19
501.501	0.2
501.854	0.19
502.206	0.19
502.558	0.19
502.91	0.2
503.263	0.18
503.615	0.19
503.967	0.18
504.319	0.18
504.671	0.19
505.023	0.18
505.375	0.18
505.726	0.18
506.078	0.18
506.43	0.17
506.782	0.18
507.133	0.18
507.485	0.18
507.837	0.18
508.188	0.18
508.54	0.19
508.891	0.19
509.243	0.18
509.594	0.18
509.945	0.17
510.296	0.17
510.648	0.18
510.999	0.17
511.35	0.18
511.701	0.17
512.052	0.18
512.403	0.18
512.754	0.18
513.105	0.17
513.456	0.16
513.807	0.17
514.157	0.17
514.508	0.17
514.859	0.17
515.209	0.17
515.56	0.17
515.91	0.18
516.261	0.18
516.611	0.17
516.962	0.17
517.312	0.17
517.662	0.17
518.013	0.17
518.363	0.18
518.713	0.17
519.063	0.18
519.413	0.17
519.763	0.18
520.113	0.17
520.463	0.18
520.813	0.18
521.163	0.18
521.512	0.17
521.862	0.17
522.212	0.18
522.562	0.18
522.911	0.17
523.261	0.17
523.61	0.17
523.96	0.17
524.309	0.18
524.658	0.18
525.008	0.18
525.357	0.18
525.706	0.18
526.056	0.18
526.405	0.17
526.754	0.18
527.103	0.17
527.452	0.18
527.801	0.18
528.15	0.18
528.499	0.17
528.847	0.17
529.196	0.18
529.545	0.18
529.893	0.19
530.242	0.18
530.591	0.19
530.939	0.19
531.288	0.18
531.636	0.18
531.985	0.19
532.333	0.18
532.681	0.19
533.029	0.19
533.378	0.18
533.726	0.18
534.074	0.19
534.422	0.18
534.77	0.19
535.118	0.18
535.466	0.18
535.814	0.18
536.162	0.18
536.509	0.18
536.857	0.18
537.205	0.19
537.552	0.19
537.9	0.19
538.248	0.18
538.595	0.19
538.943	0.18
539.29	0.18
539.637	0.18
539.985	0.18
540.332	0.18
540.679	0.19
541.026	0.18
541.373	0.19
541.721	0.18
542.068	0.18
542.415	0.18
542.762	0.18
543.108	0.18
543.455	0.18
543.802	0.18
544.149	0.18
544.496	0.19
544.842	0.18
545.189	0.17
545.535	0.17
545.882	0.18
546.228	0.17
546.575	0.17
546.921	0.17
547.267	0.17
547.614	0.18
547.96	0.18
548.306	0.18
548.652	0.17
548.998	0.18
549.344	0.18
549.69	0.17
550.036	0.17
550.382	0.18
550.728	0.18
551.074	0.18
551.42	0.19
551.765	0.18
552.111	0.19
552.457	0.2
552.802	0.18
553.148	0.18
553.493	0.18
553.839	0.19
554.184	0.19
554.529	0.18
554.875	0.19
555.22	0.2
555.565	0.19
555.91	0.18
556.255	0.19
556.6	0.19
556.945	0.19
557.29	0.18
557.635	0.19
557.98	0.19
558.325	0.19
558.67	0.19
559.014	0.19
559.359	0.19
559.704	0.19
560.048	0.17
560.393	0.18
560.737	0.16
561.082	0.18
561.426	0.18
561.77	0.18
562.115	0.18
562.459	0.18
562.803	0.18
563.147	0.18
563.491	0.18
563.835	0.19
564.179	0.19
564.523	0.18
564.867	0.18
565.211	0.18
565.555	0.19
565.899	0.19
566.242	0.19
566.586	0.18
566.93	0.18
567.273	0.2
567.617	0.19
567.96	0.19
568.304	0.2
568.647	0.19
568.99	0.18
569.334	0.19
569.677	0.19
570.02	0.2
570.363	0.19
570.706	0.19
571.049	0.18
571.392	0.2
571.735	0.18
572.078	0.2
572.421	0.2
572.764	0.19
573.106	0.19
573.449	0.19
573.792	0.19
574.134	0.19
574.477	0.19
574.819	0.19
575.162	0.19
575.504	0.19
575.847	0.19
576.189	0.19
576.531	0.19
576.873	0.19
577.215	0.18
577.558	0.19
577.9	0.17
578.242	0.18
578.584	0.18
578.926	0.19
579.267	0.18
579.609	0.18
579.951	0.18
580.293	0.19
580.634	0.19
580.976	0.19
581.318	0.19
581.659	0.18
582.001	0.19
582.342	0.19
582.683	0.19
583.025	0.18
583.366	0.18
583.707	0.19
584.049	0.19
584.39	0.19
584.731	0.18
585.072	0.19
585.413	0.19
585.754	0.19
586.095	0.19
586.435	0.19
586.776	0.19
587.117	0.19
587.458	0.19
587.798	0.18
588.139	0.19
588.48	0.19
588.82	0.18
589.161	0.18
589.501	0.18
589.841	0.18
590.182	0.18
590.522	0.18
590.862	0.18
591.202	0.18
591.542	0.18
591.882	0.18
592.222	0.18
592.562	0.18
592.902	0.18
593.242	0.18
593.582	0.18
593.922	0.19
594.261	0.18
594.601	0.18
594.941	0.18
595.28	0.18
595.62	0.18
595.959	0.18
596.299	0.18
596.638	0.18
596.977	0.19
597.317	0.18
597.656	0.18
597.995	0.18
598.334	0.19
598.673	0.18
599.012	0.19
599.351	0.19
599.69	0.18
600.029	0.19
600.368	0.19
600.707	0.19
601.046	0.19
601.384	0.19
601.723	0.18
602.061	0.18
602.4	0.19
602.738	0.19
603.077	0.18
603.415	0.17
603.754	0.18
604.092	0.18
604.43	0.17
604.768	0.18
605.107	0.19
605.445	0.18
605.783	0.18
606.121	0.18
606.459	0.18
606.796	0.18
607.134	0.17
607.472	0.18
607.81	0.18
608.148	0.18
608.485	0.18
608.823	0.18
609.16	0.18
609.498	0.18
609.835	0.18
610.173	0.18
610.51	0.18
610.847	0.18
611.185	0.19
611.522	0.18
611.859	0.18
612.196	0.18
612.533	0.18
612.87	0.18
613.207	0.18
613.544	0.19
613.881	0.19
614.217	0.18
614.554	0.18
614.891	0.18
615.228	0.18
615.564	0.18
615.901	0.18
616.237	0.19
616.574	0.18
616.91	0.19
617.246	0.19
617.583	0.18
617.919	0.19
618.255	0.19
618.591	0.18
618.927	0.19
619.263	0.19
619.599	0.19
619.935	0.18
620.271	0.19
620.607	0.19
620.943	0.19
621.279	0.19
621.614	0.18
621.95	0.18
622.286	0.18
622.621	0.18
622.957	0.18
623.292	0.18
623.627	0.18
623.963	0.18
624.298	0.18
624.633	0.18
624.968	0.17
625.304	0.17
625.639	0.17
625.974	0.17
626.309	0.17
626.644	0.18
626.979	0.18
627.313	0.17
627.648	0.17
627.983	0.18
628.318	0.17
628.652	0.17
628.987	0.17
629.321	0.18
629.656	0.16
629.99	0.16
630.325	0.17
630.659	0.17
630.993	0.16
631.327	0.17
631.662	0.16
631.996	0.16
632.33	0.16
632.664	0.16
632.998	0.16
633.332	0.16
633.666	0.16
633.999	0.16
634.333	0.16
634.667	0.16
635.001	0.16
635.334	0.15
635.668	0.16
636.001	0.16
636.335	0.15
636.668	0.16
637.001	0.15
637.335	0.16
637.668	0.15
638.001	0.14
638.334	0.15
638.668	0.14
639.001	0.15
639.334	0.15
639.667	0.15
639.999	0.15
640.332	0.15
640.665	0.15
640.998	0.15
641.331	0.15
641.663	0.15
641.996	0.15
642.328	0.16
642.661	0.15
642.993	0.15
643.326	0.15
643.658	0.15
643.99	0.15
644.323	0.16
644.655	0.15
644.987	0.16
645.319	0.17
645.651	0.16
645.983	0.15
646.315	0.15
646.647	0.16
646.979	0.17
647.31	0.17
647.642	0.16
647.974	0.16
648.305	0.16
648.637	0.16
648.968	0.16
649.3	0.15
649.631	0.15
649.963	0.15
650.294	0.16
650.625	0.15
650.957	0.15
651.288	0.16
651.619	0.16
651.95	0.16
652.281	0.16
652.612	0.16
652.943	0.15
653.274	0.16
653.604	0.16
653.935	0.15
654.266	0.15
654.596	0.15
654.927	0.16
655.258	0.15
655.588	0.16
655.918	0.15
656.249	0.14
656.579	0.15
656.909	0.15
657.24	0.14
657.57	0.15
657.9	0.14
658.23	0.15
658.56	0.15
658.89	0.15
659.22	0.15
659.55	0.15
659.88	0.14
660.209	0.15
660.539	0.16
660.869	0.15
661.198	0.15
661.528	0.15
661.857	0.15
662.187	0.15
662.516	0.15
662.846	0.14
663.175	0.14
663.504	0.14
663.833	0.14
664.163	0.14
664.492	0.14
664.821	0.14
665.15	0.14
665.479	0.15
665.807	0.14
666.136	0.15
666.465	0.14
666.794	0.14
667.122	0.15
667.451	0.14
667.78	0.14
668.108	0.15
668.437	0.14
668.765	0.15
669.093	0.15
669.422	0.15
669.75	0.15
670.078	0.14
670.406	0.14
670.734	0.15
671.062	0.14
671.39	0.14
671.718	0.14
672.046	0.15
672.374	0.14
672.702	0.15
673.029	0.14
673.357	0.15
673.685	0.15
674.012	0.14
674.34	0.14
674.667	0.15
674.995	0.14
675.322	0.14
675.649	0.13
675.977	0.14
676.304	0.14
676.631	0.14
676.958	0.14
677.285	0.13
677.612	0.13
677.939	0.13
678.266	0.13
678.593	0.13
678.92	0.13
679.246	0.13
679.573	0.13
679.9	0.13
680.226	0.13
680.553	0.12
680.879	0.14
681.206	0.14
681.532	0.13
681.858	0.14
682.184	0.13
682.511	0.14
682.837	0.13
683.163	0.14
683.489	0.13
683.815	0.14
684.141	0.13
684.467	0.13
684.793	0.13
685.118	0.13
685.444	0.13
685.77	0.13
686.095	0.13
686.421	0.13
686.746	0.13
687.072	0.13
687.397	0.12
687.723	0.13
688.048	0.13
688.373	0.12
688.698	0.13
689.023	0.13
689.349	0.12
689.674	0.12
689.999	0.12
690.323	0.11
690.648	0.11
690.973	0.12
691.298	0.11
691.623	0.12
691.947	0.11
692.272	0.11
692.596	0.12
692.921	0.12
693.245	0.12
693.57	0.12
693.894	0.13
694.218	0.12
694.543	0.12
694.867	0.12
695.191	0.11
695.515	0.12
695.839	0.12
696.163	0.12
696.487	0.12
696.811	0.12
697.135	0.12
697.458	0.12
697.782	0.12
698.106	0.12
698.429	0.12
698.753	0.12
699.076	0.12
699.4	0.12
699.723	0.12
700.046	0.11
700.37	0.12
700.693	0.13
701.016	0.11
701.339	0.12
701.662	0.12
701.985	0.12
702.308	0.11
702.631	0.11
702.954	0.12
703.277	0.11
703.599	0.11
703.922	0.11
704.245	0.1
704.567	0.11
704.89	0.11
705.212	0.11
705.535	0.11
705.857	0.1
706.179	0.1
706.502	0.1
706.824	0.1
707.146	0.1
707.468	0.11
707.79	0.1
708.112	0.11
708.434	0.11
708.756	0.1
709.078	0.1
709.399	0.1
709.721	0.1
710.043	0.1
710.364	0.11
710.686	0.1
711.007	0.1
711.329	0.11
711.65	0.1
711.972	0.1
712.293	0.11
712.614	0.11
712.935	0.11
713.256	0.11
713.577	0.11
713.898	0.11
714.219	0.11
714.54	0.1
714.861	0.1
715.182	0.11
715.503	0.11
715.823	0.11
716.144	0.1
716.464	0.09
716.785	0.1
717.105	0.1
717.426	0.1
717.746	0.1
718.066	0.1
718.387	0.09
718.707	0.1
719.027	0.1
719.347	0.09
719.667	0.09
719.987	0.09
720.307	0.09
720.627	0.09
720.947	0.09
721.266	0.09
721.586	0.09
721.906	0.09
722.225	0.09
722.545	0.09
722.864	0.08
723.184	0.1
723.503	0.09
723.823	0.09
