Data from 12-12-AQDScycling_Absorbance__103__00103.txt Node

Date: Tue Dec 12 11:22:29 EST 2023
User: kyuminlee
Spectrometer: FLMS00943
Trigger mode: 0
Integration Time (sec): 1.000000E-1
Scans to average: 1
Electric dark correction enabled: true
Nonlinearity correction enabled: false
Boxcar width: 0
XAxis mode: Wavelengths
Number of Pixels in Spectrum: 2048
>>>>>Begin Spectral Data<<<<<
179.651	0.66
180.037	0.66
180.424	0.66
180.81	-0.04
181.197	0.2
181.583	-0
181.97	-0.61
182.356	-0
182.743	-0
183.129	0.85
183.515	0.88
183.901	-0
184.288	-0
184.674	-0.06
185.06	-0
185.446	-0.38
185.832	-0
186.218	0.28
186.604	-0
186.99	-0.05
187.376	0.92
187.762	-0.21
188.148	0.11
188.534	-0.13
188.92	0.13
189.305	0.01
189.691	0.09
190.077	0.16
190.463	0.13
190.848	-0.01
191.234	0.09
191.619	0.02
192.005	0.06
192.391	0.14
192.776	0.21
193.161	0.05
193.547	0.17
193.932	-0.06
194.318	0.07
194.703	0.35
195.088	0.13
195.473	0.23
195.859	0.1
196.244	0.13
196.629	0.03
197.014	0.12
197.399	0.1
197.784	0.07
198.169	0.09
198.554	0.21
198.939	0.17
199.324	0.09
199.709	0.14
200.094	0.08
200.478	0.15
200.863	0.11
201.248	0.13
201.633	-0.01
202.017	0.12
202.402	0.19
202.787	0.07
203.171	0.06
203.556	0.12
203.94	0.06
204.325	0.34
204.709	0.24
205.093	0.13
205.478	0.21
205.862	0.1
206.246	0.12
206.631	0.18
207.015	0.16
207.399	0.1
207.783	0.04
208.167	0.14
208.551	0.24
208.935	0.15
209.319	-0.02
209.703	0.12
210.087	0.31
210.471	0.01
210.855	0.15
211.239	0.37
211.623	0.22
212.007	0.24
212.39	0.32
212.774	0.13
213.158	0.12
213.541	0.23
213.925	0.27
214.309	0.31
214.692	0.2
215.076	0.13
215.459	0.18
215.842	0.1
216.226	0.26
216.609	0.38
216.993	0.19
217.376	0.42
217.759	0.13
218.142	0.29
218.525	0.4
218.909	0.53
219.292	0.33
219.675	0.51
220.058	0.38
220.441	0.47
220.824	0.46
221.207	0.53
221.59	0.41
221.973	0.54
222.355	0.58
222.738	0.52
223.121	0.66
223.504	0.61
223.886	0.66
224.269	0.66
224.652	0.68
225.034	0.79
225.417	0.77
225.799	0.83
226.182	0.88
226.564	0.79
226.947	0.76
227.329	0.88
227.711	0.97
228.094	1.21
228.476	0.8
228.858	0.8
229.24	0.74
229.623	0.71
230.005	0.81
230.387	0.97
230.769	0.86
231.151	0.87
231.533	0.87
231.915	0.86
232.297	1.05
232.679	1.02
233.061	1.08
233.442	0.98
233.824	1.05
234.206	0.99
234.588	0.93
234.969	1.04
235.351	0.97
235.733	1.13
236.114	1.16
236.496	1.13
236.877	1.04
237.259	1.02
237.64	1.06
238.022	0.92
238.403	0.99
238.784	1
239.165	0.97
239.547	1.14
239.928	1.01
240.309	1.03
240.69	0.98
241.071	1.19
241.452	1.14
241.834	1.02
242.215	1.09
242.595	1.09
242.976	1.13
243.357	1.23
243.738	1.05
244.119	1.24
244.5	1.14
244.881	1.11
245.261	1.13
245.642	1.2
246.023	1.13
246.403	1.13
246.784	1.27
247.164	1.4
247.545	1.18
247.925	1.31
248.306	1.16
248.686	1.4
249.067	1.28
249.447	1.54
249.827	1.54
250.207	1.58
250.588	1.27
250.968	1.51
251.348	1.47
251.728	1.28
252.108	1.27
252.488	1.35
252.868	1.22
253.248	1.23
253.628	1.38
254.008	1.42
254.388	1.22
254.768	1.32
255.147	1.32
255.527	1.46
255.907	1.34
256.287	1.28
256.666	1.39
257.046	1.42
257.425	1.37
257.805	1.44
258.184	1.3
258.564	1.44
258.943	1.35
259.323	1.5
259.702	1.4
260.081	1.46
260.461	1.53
260.84	1.36
261.219	1.78
261.598	1.59
261.977	1.45
262.356	1.56
262.736	1.59
263.115	1.43
263.494	1.42
263.873	1.48
264.251	1.37
264.63	1.5
265.009	1.45
265.388	1.47
265.767	1.34
266.145	1.41
266.524	1.5
266.903	1.4
267.281	1.42
267.66	1.55
268.039	1.51
268.417	1.35
268.796	1.39
269.174	1.53
269.552	1.42
269.931	1.42
270.309	1.36
270.687	1.59
271.066	1.6
271.444	1.35
271.822	1.5
272.2	1.41
272.578	1.43
272.956	1.41
273.334	1.31
273.712	1.34
274.09	1.33
274.468	1.47
274.846	1.25
275.224	1.34
275.602	1.41
275.98	1.5
276.357	1.45
276.735	1.46
277.113	1.58
277.49	1.37
277.868	1.33
278.246	1.44
278.623	1.48
279.001	1.41
279.378	1.33
279.756	1.56
280.133	1.68
280.51	1.32
280.888	1.46
281.265	1.35
281.642	1.49
282.019	1.52
282.396	1.53
282.773	1.43
283.151	1.47
283.528	1.42
283.905	1.43
284.282	1.54
284.659	1.54
285.035	1.38
285.412	1.4
285.789	1.46
286.166	1.35
286.543	1.44
286.919	1.45
287.296	1.39
287.673	1.62
288.049	1.41
288.426	1.6
288.802	1.43
289.179	1.55
289.555	1.61
289.932	1.45
290.308	1.31
290.684	1.45
291.061	1.37
291.437	1.44
291.813	1.38
292.189	1.32
292.565	1.28
292.942	1.31
293.318	1.5
293.694	1.36
294.07	1.4
294.446	1.33
294.822	1.46
295.197	1.38
295.573	1.49
295.949	1.49
296.325	1.47
296.701	1.43
297.076	1.4
297.452	1.45
297.828	1.39
298.203	1.43
298.579	1.42
298.954	1.31
299.33	1.27
299.705	1.35
300.081	1.34
300.456	1.25
300.831	1.28
301.206	1.24
301.582	1.28
301.957	1.27
302.332	1.29
302.707	1.18
303.082	1.16
303.457	1.13
303.832	1.17
304.207	1.13
304.582	1.09
304.957	1.05
305.332	1.05
305.707	1.08
306.082	1.06
306.456	1.07
306.831	0.97
307.206	1.02
307.58	0.96
307.955	0.96
308.33	0.96
308.704	0.95
309.079	0.88
309.453	0.95
309.828	0.89
310.202	0.87
310.576	0.84
310.951	0.86
311.325	0.86
311.699	0.81
312.073	0.79
312.447	0.8
312.821	0.8
313.196	0.78
313.57	0.74
313.944	0.77
314.317	0.74
314.691	0.76
315.065	0.74
315.439	0.73
315.813	0.71
316.187	0.71
316.56	0.74
316.934	0.72
317.308	0.67
317.681	0.7
318.055	0.69
318.428	0.67
318.802	0.69
319.175	0.67
319.549	0.66
319.922	0.68
320.295	0.68
320.669	0.67
321.042	0.68
321.415	0.71
321.788	0.67
322.162	0.63
322.535	0.66
322.908	0.65
323.281	0.64
323.654	0.67
324.027	0.63
324.4	0.65
324.773	0.64
325.145	0.65
325.518	0.65
325.891	0.64
326.264	0.67
326.636	0.65
327.009	0.64
327.382	0.64
327.754	0.68
328.127	0.67
328.499	0.68
328.872	0.65
329.244	0.7
329.616	0.64
329.989	0.68
330.361	0.68
330.733	0.69
331.106	0.69
331.478	0.71
331.85	0.71
332.222	0.68
332.594	0.75
332.966	0.73
333.338	0.76
333.71	0.76
334.082	0.8
334.454	0.73
334.826	0.76
335.197	0.77
335.569	0.8
335.941	0.77
336.312	0.81
336.684	0.8
337.056	0.83
337.427	0.83
337.799	0.85
338.17	0.83
338.542	0.83
338.913	0.84
339.284	0.9
339.656	0.85
340.027	0.88
340.398	0.9
340.769	0.9
341.141	0.92
341.512	0.9
341.883	0.9
342.254	0.92
342.625	0.93
342.996	0.96
343.367	0.94
343.738	0.98
344.108	0.99
344.479	1.06
344.85	1
345.221	1.01
345.591	1
345.962	1.05
346.333	1.06
346.703	0.98
347.074	1.04
347.444	1.05
347.815	1.1
348.185	1.08
348.556	1.06
348.926	1.16
349.296	1.11
349.666	1.19
350.037	1.02
350.407	1.05
350.777	1.14
351.147	1.15
351.517	1.19
351.887	1.2
352.257	1.23
352.627	1.14
352.997	1.21
353.367	1.32
353.737	1.25
354.106	1.28
354.476	1.25
354.846	1.35
355.216	1.34
355.585	1.37
355.955	1.37
356.324	1.39
356.694	1.39
357.063	1.39
357.433	1.31
357.802	1.45
358.171	1.49
358.541	1.43
358.91	1.44
359.279	1.61
359.648	1.44
360.017	1.59
360.387	1.5
360.756	1.41
361.125	1.62
361.494	1.83
361.863	1.54
362.231	1.64
362.6	1.55
362.969	1.58
363.338	1.35
363.707	1.84
364.075	1.62
364.444	1.41
364.813	1.47
365.181	1.6
365.55	1.53
365.918	1.67
366.287	1.59
366.655	1.71
367.024	1.58
367.392	1.66
367.76	1.43
368.128	1.51
368.497	1.5
368.865	1.59
369.233	1.45
369.601	1.57
369.969	1.59
370.337	1.55
370.705	1.53
371.073	1.55
371.441	1.5
371.809	1.48
372.177	1.45
372.544	1.41
372.912	1.57
373.28	1.53
373.647	1.54
374.015	1.57
374.383	1.73
374.75	1.64
375.118	1.6
375.485	1.53
375.853	1.61
376.22	1.47
376.587	1.5
376.955	1.62
377.322	1.68
377.689	1.62
378.056	1.49
378.423	1.47
378.79	1.53
379.157	1.53
379.524	1.61
379.891	1.43
380.258	1.51
380.625	1.42
380.992	1.42
381.359	1.59
381.726	1.66
382.092	1.54
382.459	1.49
382.826	1.58
383.192	1.58
383.559	1.5
383.925	1.51
384.292	1.59
384.658	1.79
385.025	1.53
385.391	1.58
385.757	1.59
386.123	1.55
386.49	1.45
386.856	1.55
387.222	1.63
387.588	1.48
387.954	1.69
388.32	1.68
388.686	1.64
389.052	1.59
389.418	1.63
389.784	1.56
390.15	1.72
390.515	1.33
390.881	1.64
391.247	1.48
391.613	1.56
391.978	1.44
392.344	1.8
392.709	1.53
393.075	1.52
393.44	1.59
393.806	1.52
394.171	1.61
394.536	1.61
394.902	1.66
395.267	1.55
395.632	1.51
395.997	1.51
396.362	1.47
396.727	1.46
397.092	1.6
397.457	1.51
397.822	1.53
398.187	1.76
398.552	1.65
398.917	1.69
399.282	1.52
399.646	1.54
400.011	1.59
400.376	1.44
400.74	1.44
401.105	1.57
401.47	1.63
401.834	1.49
402.199	1.51
402.563	1.44
402.927	1.52
403.292	1.6
403.656	1.53
404.02	1.52
404.384	1.64
404.749	1.49
405.113	1.76
405.477	1.64
405.841	1.61
406.205	1.59
406.569	1.53
406.933	1.67
407.296	1.61
407.66	1.52
408.024	1.55
408.388	1.68
408.752	1.67
409.115	1.65
409.479	1.48
409.842	1.55
410.206	1.51
410.569	1.46
410.933	1.59
411.296	1.47
411.66	1.53
412.023	1.48
412.386	1.6
412.749	1.4
413.113	1.73
413.476	1.61
413.839	1.47
414.202	1.5
414.565	1.47
414.928	1.48
415.291	1.38
415.654	1.43
416.017	1.55
416.38	1.47
416.742	1.44
417.105	1.43
417.468	1.39
417.83	1.64
418.193	1.54
418.556	1.66
418.918	1.44
419.281	1.53
419.643	1.63
420.005	1.47
420.368	1.52
420.73	1.49
421.092	1.62
421.455	1.54
421.817	1.37
422.179	1.57
422.541	1.64
422.903	1.52
423.265	1.58
423.627	1.49
423.989	1.58
424.351	1.51
424.713	1.47
425.075	1.53
425.436	1.49
425.798	1.56
426.16	1.64
426.521	1.55
426.883	1.49
427.245	1.5
427.606	1.5
427.967	1.36
428.329	1.47
428.69	1.52
429.052	1.34
429.413	1.63
429.774	1.61
430.135	1.56
430.497	1.49
430.858	1.58
431.219	1.54
431.58	1.47
431.941	1.5
432.302	1.48
432.663	1.45
433.024	1.53
433.384	1.54
433.745	1.48
434.106	1.55
434.467	1.54
434.827	1.53
435.188	1.48
435.548	1.72
435.909	1.44
436.269	1.49
436.63	1.54
436.99	1.56
437.351	1.38
437.711	1.57
438.071	1.51
438.431	1.46
438.792	1.43
439.152	1.46
439.512	1.47
439.872	1.42
440.232	1.5
440.592	1.47
440.952	1.5
441.312	1.46
441.671	1.36
442.031	1.46
442.391	1.43
442.751	1.45
443.11	1.55
443.47	1.45
443.83	1.43
444.189	1.46
444.549	1.37
444.908	1.39
445.267	1.4
445.627	1.37
445.986	1.39
446.345	1.31
446.705	1.38
447.064	1.4
447.423	1.31
447.782	1.37
448.141	1.37
448.5	1.32
448.859	1.32
449.218	1.35
449.577	1.38
449.936	1.32
450.295	1.33
450.653	1.33
451.012	1.3
451.371	1.36
451.729	1.31
452.088	1.34
452.447	1.33
452.805	1.27
453.163	1.27
453.522	1.27
453.88	1.25
454.239	1.22
454.597	1.23
454.955	1.2
455.313	1.21
455.671	1.21
456.029	1.21
456.388	1.18
456.746	1.15
457.104	1.15
457.461	1.12
457.819	1.14
458.177	1.11
458.535	1.08
458.893	1.07
459.25	1.06
459.608	1.07
459.966	1.02
460.323	1.02
460.681	1
461.038	1
461.396	0.98
461.753	0.98
462.111	0.95
462.468	0.93
462.825	0.93
463.182	0.92
463.54	0.91
463.897	0.91
464.254	0.88
464.611	0.88
464.968	0.87
465.325	0.85
465.682	0.84
466.039	0.83
466.395	0.79
466.752	0.8
467.109	0.79
467.466	0.78
467.822	0.76
468.179	0.74
468.535	0.74
468.892	0.74
469.248	0.71
469.605	0.69
469.961	0.7
470.318	0.68
470.674	0.68
471.03	0.66
471.386	0.66
471.743	0.64
472.099	0.62
472.455	0.61
472.811	0.6
473.167	0.59
473.523	0.57
473.879	0.56
474.235	0.56
474.59	0.56
474.946	0.53
475.302	0.53
475.657	0.52
476.013	0.51
476.369	0.5
476.724	0.5
477.08	0.49
477.435	0.49
477.791	0.47
478.146	0.47
478.501	0.46
478.857	0.45
479.212	0.43
479.567	0.43
479.922	0.42
480.277	0.42
480.632	0.4
480.987	0.4
481.342	0.39
481.697	0.38
482.052	0.37
482.407	0.36
482.762	0.36
483.116	0.35
483.471	0.34
483.826	0.33
484.18	0.33
484.535	0.32
484.89	0.31
485.244	0.31
485.598	0.31
485.953	0.3
486.307	0.29
486.661	0.29
487.016	0.28
487.37	0.27
487.724	0.27
488.078	0.26
488.432	0.25
488.786	0.26
489.14	0.25
489.494	0.24
489.848	0.23
490.202	0.23
490.556	0.23
490.91	0.22
491.263	0.22
491.617	0.21
491.971	0.21
492.324	0.21
492.678	0.2
493.031	0.2
493.385	0.19
493.738	0.19
494.091	0.19
494.445	0.18
494.798	0.18
495.151	0.18
495.504	0.17
495.857	0.17
496.21	0.17
496.564	0.17
496.916	0.17
497.269	0.16
497.622	0.16
497.975	0.15
498.328	0.16
498.681	0.15
499.033	0.15
499.386	0.14
499.739	0.14
500.091	0.14
500.444	0.13
500.796	0.14
501.149	0.13
501.501	0.13
501.854	0.12
502.206	0.13
502.558	0.13
502.91	0.12
503.263	0.13
503.615	0.12
503.967	0.11
504.319	0.12
504.671	0.11
505.023	0.11
505.375	0.11
505.726	0.11
506.078	0.1
506.43	0.1
506.782	0.1
507.133	0.1
507.485	0.1
507.837	0.11
508.188	0.1
508.54	0.1
508.891	0.11
509.243	0.09
509.594	0.09
509.945	0.09
510.296	0.09
510.648	0.09
510.999	0.09
511.35	0.09
511.701	0.08
512.052	0.09
512.403	0.09
512.754	0.08
513.105	0.08
513.456	0.07
513.807	0.07
514.157	0.08
514.508	0.07
514.859	0.06
515.209	0.07
515.56	0.07
515.91	0.07
516.261	0.07
516.611	0.06
516.962	0.07
517.312	0.07
517.662	0.07
518.013	0.07
518.363	0.07
518.713	0.07
519.063	0.07
519.413	0.06
519.763	0.07
520.113	0.07
520.463	0.07
520.813	0.07
521.163	0.07
521.512	0.06
521.862	0.06
522.212	0.07
522.562	0.07
522.911	0.06
523.261	0.06
523.61	0.06
523.96	0.06
524.309	0.07
524.658	0.06
525.008	0.06
525.357	0.06
525.706	0.07
526.056	0.06
526.405	0.06
526.754	0.06
527.103	0.06
527.452	0.06
527.801	0.06
528.15	0.06
528.499	0.06
528.847	0.06
529.196	0.06
529.545	0.07
529.893	0.07
530.242	0.06
530.591	0.06
530.939	0.07
531.288	0.06
531.636	0.06
531.985	0.06
532.333	0.06
532.681	0.06
533.029	0.05
533.378	0.06
533.726	0.06
534.074	0.06
534.422	0.05
534.77	0.05
535.118	0.05
535.466	0.06
535.814	0.05
536.162	0.05
536.509	0.06
536.857	0.06
537.205	0.06
537.552	0.06
537.9	0.06
538.248	0.05
538.595	0.05
538.943	0.05
539.29	0.05
539.637	0.04
539.985	0.05
540.332	0.04
540.679	0.04
541.026	0.04
541.373	0.04
541.721	0.04
542.068	0.04
542.415	0.04
542.762	0.04
543.108	0.04
543.455	0.04
543.802	0.04
544.149	0.04
544.496	0.05
544.842	0.04
545.189	0.03
545.535	0.04
545.882	0.04
546.228	0.04
546.575	0.04
546.921	0.03
547.267	0.04
547.614	0.04
547.96	0.05
548.306	0.04
548.652	0.04
548.998	0.05
549.344	0.04
549.69	0.05
550.036	0.05
550.382	0.04
550.728	0.05
551.074	0.05
551.42	0.04
551.765	0.04
552.111	0.05
552.457	0.05
552.802	0.05
553.148	0.04
553.493	0.04
553.839	0.05
554.184	0.05
554.529	0.03
554.875	0.05
555.22	0.06
555.565	0.05
555.91	0.04
556.255	0.05
556.6	0.05
556.945	0.04
557.29	0.04
557.635	0.05
557.98	0.04
558.325	0.04
558.67	0.04
559.014	0.05
559.359	0.04
559.704	0.04
560.048	0.04
560.393	0.04
560.737	0.03
561.082	0.03
561.426	0.03
561.77	0.04
562.115	0.03
562.459	0.04
562.803	0.03
563.147	0.04
563.491	0.03
563.835	0.03
564.179	0.04
564.523	0.03
564.867	0.03
565.211	0.04
565.555	0.04
565.899	0.04
566.242	0.04
566.586	0.03
566.93	0.04
567.273	0.04
567.617	0.05
567.96	0.04
568.304	0.05
568.647	0.03
568.99	0.04
569.334	0.05
569.677	0.04
570.02	0.05
570.363	0.04
570.706	0.04
571.049	0.04
571.392	0.04
571.735	0.03
572.078	0.04
572.421	0.05
572.764	0.04
573.106	0.04
573.449	0.04
573.792	0.04
574.134	0.04
574.477	0.04
574.819	0.04
575.162	0.04
575.504	0.04
575.847	0.04
576.189	0.04
576.531	0.04
576.873	0.04
577.215	0.04
577.558	0.04
577.9	0.04
578.242	0.03
578.584	0.04
578.926	0.03
579.267	0.03
579.609	0.03
579.951	0.03
580.293	0.02
580.634	0.03
580.976	0.03
581.318	0.02
581.659	0.02
582.001	0.03
582.342	0.03
582.683	0.04
583.025	0.03
583.366	0.03
583.707	0.03
584.049	0.03
584.39	0.03
584.731	0.03
585.072	0.04
585.413	0.04
585.754	0.04
586.095	0.04
586.435	0.04
586.776	0.04
587.117	0.04
587.458	0.03
587.798	0.03
588.139	0.03
588.48	0.03
588.82	0.03
589.161	0.03
589.501	0.03
589.841	0.04
590.182	0.03
590.522	0.02
590.862	0.03
591.202	0.02
591.542	0.03
591.882	0.03
592.222	0.03
592.562	0.03
592.902	0.03
593.242	0.03
593.582	0.03
593.922	0.04
594.261	0.03
594.601	0.03
594.941	0.03
595.28	0.03
595.62	0.03
595.959	0.03
596.299	0.03
596.638	0.03
596.977	0.03
597.317	0.04
597.656	0.03
597.995	0.03
598.334	0.03
598.673	0.03
599.012	0.03
599.351	0.04
599.69	0.03
600.029	0.04
600.368	0.03
600.707	0.03
601.046	0.03
601.384	0.03
601.723	0.03
602.061	0.03
602.4	0.03
602.738	0.03
603.077	0.03
603.415	0.03
603.754	0.03
604.092	0.03
604.43	0.03
604.768	0.04
605.107	0.03
605.445	0.03
605.783	0.03
606.121	0.03
606.459	0.04
606.796	0.04
607.134	0.03
607.472	0.03
607.81	0.04
608.148	0.03
608.485	0.03
608.823	0.04
609.16	0.03
609.498	0.04
609.835	0.03
610.173	0.04
610.51	0.04
610.847	0.04
611.185	0.04
611.522	0.04
611.859	0.04
612.196	0.04
612.533	0.05
612.87	0.05
613.207	0.04
613.544	0.05
613.881	0.06
614.217	0.05
614.554	0.05
614.891	0.05
615.228	0.05
615.564	0.05
615.901	0.05
616.237	0.05
616.574	0.05
616.91	0.06
617.246	0.04
617.583	0.05
617.919	0.05
618.255	0.05
618.591	0.04
618.927	0.04
619.263	0.05
619.599	0.05
619.935	0.05
620.271	0.05
620.607	0.04
620.943	0.04
621.279	0.05
621.614	0.04
621.95	0.04
622.286	0.04
622.621	0.04
622.957	0.04
623.292	0.04
623.627	0.04
623.963	0.04
624.298	0.03
624.633	0.03
624.968	0.03
625.304	0.04
625.639	0.03
625.974	0.04
626.309	0.03
626.644	0.04
626.979	0.04
627.313	0.04
627.648	0.04
627.983	0.04
628.318	0.03
628.652	0.03
628.987	0.04
629.321	0.03
629.656	0.03
629.99	0.03
630.325	0.04
630.659	0.04
630.993	0.03
631.327	0.04
631.662	0.03
631.996	0.03
632.33	0.04
632.664	0.04
632.998	0.04
633.332	0.03
633.666	0.03
633.999	0.03
634.333	0.03
634.667	0.03
635.001	0.03
635.334	0.03
635.668	0.02
636.001	0.03
636.335	0.03
636.668	0.03
637.001	0.02
637.335	0.03
637.668	0.03
638.001	0.02
638.334	0.03
638.668	0.03
639.001	0.03
639.334	0.02
639.667	0.03
639.999	0.02
640.332	0.03
640.665	0.02
640.998	0.03
641.331	0.04
641.663	0.03
641.996	0.03
642.328	0.03
642.661	0.04
642.993	0.03
643.326	0.03
643.658	0.03
643.99	0.03
644.323	0.03
644.655	0.04
644.987	0.04
645.319	0.04
645.651	0.04
645.983	0.03
646.315	0.03
646.647	0.04
646.979	0.04
647.31	0.04
647.642	0.03
647.974	0.03
648.305	0.04
648.637	0.04
648.968	0.04
649.3	0.04
649.631	0.05
649.963	0.04
650.294	0.04
650.625	0.04
650.957	0.05
651.288	0.04
651.619	0.05
651.95	0.04
652.281	0.03
652.612	0.04
652.943	0.04
653.274	0.04
653.604	0.04
653.935	0.04
654.266	0.04
654.596	0.04
654.927	0.04
655.258	0.04
655.588	0.05
655.918	0.04
656.249	0.02
656.579	0.04
656.909	0.04
657.24	0.04
657.57	0.04
657.9	0.04
658.23	0.04
658.56	0.04
658.89	0.04
659.22	0.04
659.55	0.05
659.88	0.04
660.209	0.05
660.539	0.05
660.869	0.04
661.198	0.04
661.528	0.04
661.857	0.04
662.187	0.04
662.516	0.04
662.846	0.04
663.175	0.04
663.504	0.04
663.833	0.04
664.163	0.04
664.492	0.04
664.821	0.04
665.15	0.04
665.479	0.04
665.807	0.04
666.136	0.04
666.465	0.04
666.794	0.04
667.122	0.04
667.451	0.04
667.78	0.04
668.108	0.04
668.437	0.03
668.765	0.04
669.093	0.04
669.422	0.04
669.75	0.04
670.078	0.04
670.406	0.04
670.734	0.04
671.062	0.04
671.39	0.04
671.718	0.04
672.046	0.04
672.374	0.04
672.702	0.04
673.029	0.04
673.357	0.04
673.685	0.05
674.012	0.04
674.34	0.03
674.667	0.04
674.995	0.04
675.322	0.04
675.649	0.04
675.977	0.04
676.304	0.04
676.631	0.04
676.958	0.04
677.285	0.02
677.612	0.03
677.939	0.03
678.266	0.03
678.593	0.03
678.92	0.03
679.246	0.03
679.573	0.03
679.9	0.02
680.226	0.03
680.553	0.03
680.879	0.03
681.206	0.03
681.532	0.03
681.858	0.03
682.184	0.03
682.511	0.04
682.837	0.03
683.163	0.03
683.489	0.03
683.815	0.03
684.141	0.03
684.467	0.03
684.793	0.03
685.118	0.03
685.444	0.03
685.77	0.03
686.095	0.03
686.421	0.03
686.746	0.04
687.072	0.04
687.397	0.03
687.723	0.04
688.048	0.04
688.373	0.04
688.698	0.04
689.023	0.04
689.349	0.03
689.674	0.03
689.999	0.03
690.323	0.02
690.648	0.02
690.973	0.02
691.298	0.02
691.623	0.02
691.947	0.02
692.272	0.02
692.596	0.02
692.921	0.03
693.245	0.02
693.57	0.03
693.894	0.03
694.218	0.03
694.543	0.03
694.867	0.02
695.191	0.02
695.515	0.03
695.839	0.02
696.163	0.02
696.487	0.02
696.811	0.03
697.135	0.03
697.458	0.02
697.782	0.03
698.106	0.03
698.429	0.03
698.753	0.03
699.076	0.03
699.4	0.03
699.723	0.03
700.046	0.02
700.37	0.02
700.693	0.04
701.016	0.03
701.339	0.03
701.662	0.03
701.985	0.04
702.308	0.03
702.631	0.03
702.954	0.03
703.277	0.03
703.599	0.04
703.922	0.03
704.245	0.03
704.567	0.03
704.89	0.03
705.212	0.03
705.535	0.03
705.857	0.02
706.179	0.02
706.502	0.02
706.824	0.01
707.146	0.02
707.468	0.02
707.79	0.02
708.112	0.03
708.434	0.03
708.756	0.03
709.078	0.03
709.399	0.02
709.721	0.02
710.043	0.03
710.364	0.02
710.686	0.02
711.007	0.02
711.329	0.03
711.65	0.03
711.972	0.03
712.293	0.03
712.614	0.03
712.935	0.03
713.256	0.02
713.577	0.04
713.898	0.02
714.219	0.02
714.54	0.02
714.861	0.02
715.182	0.03
715.503	0.02
715.823	0.03
716.144	0.03
716.464	0.02
716.785	0.02
717.105	0.02
717.426	0.02
717.746	0.02
718.066	0.02
718.387	0.02
718.707	0.01
719.027	0.02
719.347	0.01
719.667	0.02
719.987	0.01
720.307	0.01
720.627	0.02
720.947	0.01
721.266	0.02
721.586	0.01
721.906	0.02
722.225	0.01
722.545	0.01
722.864	0.01
