Data from 12-12-AQDScycling_Absorbance__914__00914.txt Node

Date: Tue Dec 12 14:45:14 EST 2023
User: kyuminlee
Spectrometer: FLMS00943
Trigger mode: 0
Integration Time (sec): 1.000000E-1
Scans to average: 1
Electric dark correction enabled: true
Nonlinearity correction enabled: false
Boxcar width: 0
XAxis mode: Wavelengths
Number of Pixels in Spectrum: 2048
>>>>>Begin Spectral Data<<<<<
179.651	-0
180.037	-0
180.424	-0
180.81	0
181.197	0.35
181.583	-0
181.97	-0.26
182.356	-0
182.743	-0
183.129	0.48
183.515	-0
183.901	-0
184.288	0.33
184.674	-0
185.06	-0
185.446	-0
185.832	-1.46
186.218	0.62
186.604	-0
186.99	-0
187.376	0.13
187.762	-0
188.148	0.25
188.534	0.2
188.92	0.24
189.305	0.11
189.691	0.15
190.077	0.1
190.463	0.07
190.848	0.06
191.234	0.17
191.619	0.09
192.005	0.16
192.391	0.29
192.776	0.09
193.161	0.15
193.547	0.1
193.932	0.08
194.318	0.07
194.703	0.09
195.088	0.1
195.473	0.09
195.859	0.17
196.244	0.18
196.629	0.15
197.014	0.02
197.399	0.11
197.784	0.21
198.169	0.07
198.554	0.2
198.939	0.15
199.324	0.04
199.709	0.14
200.094	0.09
200.478	0.1
200.863	0.22
201.248	0.4
201.633	0.14
202.017	0.14
202.402	0.16
202.787	0.24
203.171	0.14
203.556	0.16
203.94	0.15
204.325	0.11
204.709	0.1
205.093	0.02
205.478	0.28
205.862	0.12
206.246	0.22
206.631	0.1
207.015	0.07
207.399	0.2
207.783	0.14
208.167	0.16
208.551	0.13
208.935	0.14
209.319	0.28
209.703	0.25
210.087	0.25
210.471	0.08
210.855	0.19
211.239	0.21
211.623	0.29
212.007	0.23
212.39	0.38
212.774	0.25
213.158	0.11
213.541	0.19
213.925	0.22
214.309	0.25
214.692	0.18
215.076	0.17
215.459	0.12
215.842	0.14
216.226	0.31
216.609	0.31
216.993	0.23
217.376	0.52
217.759	0.2
218.142	0.34
218.525	0.49
218.909	0.32
219.292	0.35
219.675	0.38
220.058	0.45
220.441	0.42
220.824	0.57
221.207	0.52
221.59	0.53
221.973	0.54
222.355	0.53
222.738	0.71
223.121	0.55
223.504	0.56
223.886	0.62
224.269	0.67
224.652	0.68
225.034	0.85
225.417	0.67
225.799	0.8
226.182	0.84
226.564	0.8
226.947	0.72
227.329	0.83
227.711	1.04
228.094	1.02
228.476	0.84
228.858	0.89
229.24	0.79
229.623	1.01
230.005	0.75
230.387	0.91
230.769	0.84
231.151	1.04
231.533	0.87
231.915	1.03
232.297	0.98
232.679	0.98
233.061	1.05
233.442	0.97
233.824	1.01
234.206	1.03
234.588	0.96
234.969	1.04
235.351	1.02
235.733	1.1
236.114	1.16
236.496	1.09
236.877	1.21
237.259	1.11
237.64	1.04
238.022	1.01
238.403	1.02
238.784	1.06
239.165	0.97
239.547	1.24
239.928	1.15
240.309	1.02
240.69	0.94
241.071	1.03
241.452	1.14
241.834	1.17
242.215	0.98
242.595	0.97
242.976	1.12
243.357	1.2
243.738	1.12
244.119	1.35
244.5	1.18
244.881	1.22
245.261	1.26
245.642	1.27
246.023	1.16
246.403	1.15
246.784	1.18
247.164	1.25
247.545	1.34
247.925	1.27
248.306	1.29
248.686	1.42
249.067	1.17
249.447	1.57
249.827	1.77
250.207	1.38
250.588	1.17
250.968	1.7
251.348	1.27
251.728	1.38
252.108	1.32
252.488	1.32
252.868	1.27
253.248	1.38
253.628	1.38
254.008	1.59
254.388	1.38
254.768	1.33
255.147	1.45
255.527	1.32
255.907	1.35
256.287	1.24
256.666	1.42
257.046	1.42
257.425	1.51
257.805	1.33
258.184	1.23
258.564	1.24
258.943	1.28
259.323	1.42
259.702	1.52
260.081	1.38
260.461	1.54
260.84	1.49
261.219	1.84
261.598	1.36
261.977	1.45
262.356	1.49
262.736	1.42
263.115	1.61
263.494	1.43
263.873	1.3
264.251	1.55
264.63	1.52
265.009	1.41
265.388	1.39
265.767	1.39
266.145	1.39
266.524	1.39
266.903	1.39
267.281	1.33
267.66	1.6
268.039	1.48
268.417	1.38
268.796	1.38
269.174	1.32
269.552	1.4
269.931	1.44
270.309	1.42
270.687	1.62
271.066	1.5
271.444	1.28
271.822	1.58
272.2	1.55
272.578	1.43
272.956	1.44
273.334	1.34
273.712	1.46
274.09	1.49
274.468	1.41
274.846	1.26
275.224	1.44
275.602	1.44
275.98	1.49
276.357	1.32
276.735	1.68
277.113	1.4
277.49	1.32
277.868	1.34
278.246	1.39
278.623	1.29
279.001	1.4
279.378	1.54
279.756	1.57
280.133	1.44
280.51	1.36
280.888	1.39
281.265	1.27
281.642	1.53
282.019	1.67
282.396	1.6
282.773	1.37
283.151	1.52
283.528	1.52
283.905	1.45
284.282	1.63
284.659	1.66
285.035	1.36
285.412	1.47
285.789	1.56
286.166	1.48
286.543	1.41
286.919	1.63
287.296	1.52
287.673	1.5
288.049	1.57
288.426	1.64
288.802	1.49
289.179	1.46
289.555	1.5
289.932	1.38
290.308	1.34
290.684	1.35
291.061	1.35
291.437	1.41
291.813	1.42
292.189	1.42
292.565	1.22
292.942	1.32
293.318	1.3
293.694	1.56
294.07	1.47
294.446	1.38
294.822	1.77
295.197	1.41
295.573	1.47
295.949	1.36
296.325	1.55
296.701	1.62
297.076	1.63
297.452	1.47
297.828	1.53
298.203	1.64
298.579	1.36
298.954	1.41
299.33	1.4
299.705	1.37
300.081	1.5
300.456	1.54
300.831	1.45
301.206	1.35
301.582	1.53
301.957	1.57
302.332	1.53
302.707	1.45
303.082	1.43
303.457	1.59
303.832	1.46
304.207	1.46
304.582	1.48
304.957	1.51
305.332	1.52
305.707	1.52
306.082	1.48
306.456	1.59
306.831	1.41
307.206	1.4
307.58	1.5
307.955	1.51
308.33	1.45
308.704	1.39
309.079	1.39
309.453	1.54
309.828	1.36
310.202	1.39
310.576	1.39
310.951	1.48
311.325	1.56
311.699	1.38
312.073	1.37
312.447	1.46
312.821	1.35
313.196	1.54
313.57	1.39
313.944	1.44
314.317	1.33
314.691	1.45
315.065	1.48
315.439	1.55
315.813	1.46
316.187	1.43
316.56	1.62
316.934	1.52
317.308	1.39
317.681	1.43
318.055	1.48
318.428	1.42
318.802	1.48
319.175	1.49
319.549	1.5
319.922	1.41
320.295	1.39
320.669	1.57
321.042	1.46
321.415	1.66
321.788	1.53
322.162	1.46
322.535	1.48
322.908	1.61
323.281	1.42
323.654	1.61
324.027	1.4
324.4	1.42
324.773	1.51
325.145	1.48
325.518	1.4
325.891	1.42
326.264	1.49
326.636	1.36
327.009	1.36
327.382	1.46
327.754	1.53
328.127	1.42
328.499	1.51
328.872	1.44
329.244	1.63
329.616	1.38
329.989	1.44
330.361	1.62
330.733	1.4
331.106	1.47
331.478	1.6
331.85	1.52
332.222	1.4
332.594	1.45
332.966	1.5
333.338	1.55
333.71	1.43
334.082	1.64
334.454	1.43
334.826	1.5
335.197	1.46
335.569	1.58
335.941	1.42
336.312	1.44
336.684	1.47
337.056	1.43
337.427	1.68
337.799	1.58
338.17	1.49
338.542	1.54
338.913	1.66
339.284	1.58
339.656	1.49
340.027	1.53
340.398	1.57
340.769	1.54
341.141	1.64
341.512	1.47
341.883	1.6
342.254	1.46
342.625	1.47
342.996	1.5
343.367	1.41
343.738	1.57
344.108	1.47
344.479	1.53
344.85	1.52
345.221	1.64
345.591	1.44
345.962	1.47
346.333	1.4
346.703	1.34
347.074	1.29
347.444	1.3
347.815	1.43
348.185	1.44
348.556	1.35
348.926	1.3
349.296	1.45
349.666	1.36
350.037	1.32
350.407	1.34
350.777	1.39
351.147	1.31
351.517	1.35
351.887	1.3
352.257	1.42
352.627	1.24
352.997	1.34
353.367	1.41
353.737	1.42
354.106	1.41
354.476	1.35
354.846	1.4
355.216	1.41
355.585	1.44
355.955	1.44
356.324	1.35
356.694	1.32
357.063	1.31
357.433	1.29
357.802	1.3
358.171	1.35
358.541	1.33
358.91	1.38
359.279	1.38
359.648	1.29
360.017	1.29
360.387	1.32
360.756	1.26
361.125	1.27
361.494	1.36
361.863	1.27
362.231	1.29
362.6	1.24
362.969	1.23
363.338	1.3
363.707	1.32
364.075	1.29
364.444	1.21
364.813	1.23
365.181	1.27
365.55	1.2
365.918	1.31
366.287	1.34
366.655	1.34
367.024	1.23
367.392	1.31
367.76	1.3
368.128	1.27
368.497	1.25
368.865	1.26
369.233	1.22
369.601	1.18
369.969	1.25
370.337	1.25
370.705	1.23
371.073	1.21
371.441	1.19
371.809	1.22
372.177	1.24
372.544	1.27
372.912	1.29
373.28	1.21
373.647	1.28
374.015	1.38
374.383	1.4
374.75	1.37
375.118	1.32
375.485	1.35
375.853	1.27
376.22	1.25
376.587	1.23
376.955	1.32
377.322	1.32
377.689	1.25
378.056	1.19
378.423	1.27
378.79	1.24
379.157	1.22
379.524	1.31
379.891	1.26
380.258	1.29
380.625	1.24
380.992	1.29
381.359	1.34
381.726	1.44
382.092	1.29
382.459	1.33
382.826	1.36
383.192	1.33
383.559	1.4
383.925	1.39
384.292	1.34
384.658	1.37
385.025	1.37
385.391	1.44
385.757	1.48
386.123	1.39
386.49	1.4
386.856	1.48
387.222	1.45
387.588	1.26
387.954	1.51
388.32	1.49
388.686	1.59
389.052	1.38
389.418	1.46
389.784	1.35
390.15	1.43
390.515	1.3
390.881	1.47
391.247	1.41
391.613	1.53
391.978	1.36
392.344	1.53
392.709	1.48
393.075	1.45
393.44	1.49
393.806	1.36
394.171	1.46
394.536	1.45
394.902	1.38
395.267	1.42
395.632	1.47
395.997	1.34
396.362	1.39
396.727	1.43
397.092	1.35
397.457	1.42
397.822	1.38
398.187	1.37
398.552	1.38
398.917	1.35
399.282	1.34
399.646	1.37
400.011	1.49
400.376	1.3
400.74	1.31
401.105	1.31
401.47	1.37
401.834	1.41
402.199	1.42
402.563	1.3
402.927	1.29
403.292	1.37
403.656	1.28
404.02	1.32
404.384	1.32
404.749	1.24
405.113	1.28
405.477	1.29
405.841	1.23
406.205	1.26
406.569	1.21
406.933	1.24
407.296	1.21
407.66	1.24
408.024	1.17
408.388	1.19
408.752	1.24
409.115	1.28
409.479	1.18
409.842	1.25
410.206	1.12
410.569	1.19
410.933	1.18
411.296	1.11
411.66	1.19
412.023	1.14
412.386	1.12
412.749	1.1
413.113	1.1
413.476	1.1
413.839	1.11
414.202	1.09
414.565	1.06
414.928	1.04
415.291	1.03
415.654	1.02
416.017	1.09
416.38	1.07
416.742	1.08
417.105	1.03
417.468	1.1
417.83	1.09
418.193	1.11
418.556	1.06
418.918	1.03
419.281	1.06
419.643	1.1
420.005	1.06
420.368	1.08
420.73	1.04
421.092	1.08
421.455	1.07
421.817	0.96
422.179	1.01
422.541	1.02
422.903	1.09
423.265	1.08
423.627	1.03
423.989	1.03
424.351	1.02
424.713	1
425.075	1.02
425.436	1
425.798	0.99
426.16	0.98
426.521	0.97
426.883	1.02
427.245	1
427.606	0.98
427.967	0.95
428.329	0.99
428.69	1.03
429.052	0.97
429.413	1.01
429.774	0.99
430.135	0.96
430.497	1
430.858	0.98
431.219	0.95
431.58	0.95
431.941	0.93
432.302	0.95
432.663	0.96
433.024	0.99
433.384	0.95
433.745	0.92
434.106	0.96
434.467	0.92
434.827	0.93
435.188	0.94
435.548	0.94
435.909	0.92
436.269	0.93
436.63	0.91
436.99	0.89
437.351	0.88
437.711	0.91
438.071	0.89
438.431	0.85
438.792	0.87
439.152	0.88
439.512	0.87
439.872	0.85
440.232	0.92
440.592	0.85
440.952	0.88
441.312	0.85
441.671	0.86
442.031	0.84
442.391	0.85
442.751	0.85
443.11	0.83
443.47	0.82
443.83	0.82
444.189	0.81
444.549	0.82
444.908	0.8
445.267	0.81
445.627	0.79
445.986	0.79
446.345	0.79
446.705	0.79
447.064	0.76
447.423	0.77
447.782	0.78
448.141	0.76
448.5	0.75
448.859	0.75
449.218	0.75
449.577	0.75
449.936	0.76
450.295	0.74
450.653	0.73
451.012	0.72
451.371	0.72
451.729	0.72
452.088	0.74
452.447	0.74
452.805	0.71
453.163	0.72
453.522	0.72
453.88	0.7
454.239	0.71
454.597	0.68
454.955	0.67
455.313	0.66
455.671	0.68
456.029	0.66
456.388	0.65
456.746	0.65
457.104	0.64
457.461	0.64
457.819	0.64
458.177	0.62
458.535	0.62
458.893	0.61
459.25	0.6
459.608	0.6
459.966	0.59
460.323	0.58
460.681	0.58
461.038	0.58
461.396	0.58
461.753	0.55
462.111	0.56
462.468	0.54
462.825	0.54
463.182	0.53
463.54	0.52
463.897	0.52
464.254	0.51
464.611	0.52
464.968	0.51
465.325	0.5
465.682	0.49
466.039	0.49
466.395	0.48
466.752	0.48
467.109	0.47
467.466	0.47
467.822	0.47
468.179	0.45
468.535	0.46
468.892	0.45
469.248	0.45
469.605	0.44
469.961	0.43
470.318	0.44
470.674	0.42
471.03	0.41
471.386	0.42
471.743	0.41
472.099	0.4
472.455	0.4
472.811	0.38
473.167	0.4
473.523	0.38
473.879	0.38
474.235	0.37
474.59	0.36
474.946	0.37
475.302	0.36
475.657	0.36
476.013	0.35
476.369	0.35
476.724	0.35
477.08	0.34
477.435	0.34
477.791	0.34
478.146	0.33
478.501	0.33
478.857	0.33
479.212	0.31
479.567	0.31
479.922	0.29
480.277	0.3
480.632	0.3
480.987	0.3
481.342	0.29
481.697	0.29
482.052	0.28
482.407	0.28
482.762	0.27
483.116	0.28
483.471	0.27
483.826	0.26
484.18	0.26
484.535	0.25
484.89	0.25
485.244	0.25
485.598	0.26
485.953	0.25
486.307	0.24
486.661	0.25
487.016	0.24
487.37	0.24
487.724	0.24
488.078	0.23
488.432	0.23
488.786	0.22
489.14	0.23
489.494	0.22
489.848	0.22
490.202	0.22
490.556	0.22
490.91	0.22
491.263	0.21
491.617	0.21
491.971	0.2
492.324	0.21
492.678	0.21
493.031	0.2
493.385	0.2
493.738	0.21
494.091	0.2
494.445	0.2
494.798	0.19
495.151	0.19
495.504	0.2
495.857	0.19
496.21	0.2
496.564	0.19
496.916	0.2
497.269	0.19
497.622	0.19
497.975	0.19
498.328	0.18
498.681	0.18
499.033	0.18
499.386	0.18
499.739	0.18
500.091	0.17
500.444	0.17
500.796	0.18
501.149	0.17
501.501	0.18
501.854	0.17
502.206	0.17
502.558	0.18
502.91	0.18
503.263	0.17
503.615	0.17
503.967	0.17
504.319	0.17
504.671	0.17
505.023	0.17
505.375	0.17
505.726	0.16
506.078	0.16
506.43	0.16
506.782	0.16
507.133	0.17
507.485	0.17
507.837	0.17
508.188	0.17
508.54	0.17
508.891	0.18
509.243	0.17
509.594	0.16
509.945	0.17
510.296	0.17
510.648	0.17
510.999	0.15
511.35	0.16
511.701	0.16
512.052	0.17
512.403	0.17
512.754	0.16
513.105	0.16
513.456	0.16
513.807	0.15
514.157	0.17
514.508	0.17
514.859	0.16
515.209	0.16
515.56	0.17
515.91	0.15
516.261	0.16
516.611	0.15
516.962	0.17
517.312	0.16
517.662	0.16
518.013	0.16
518.363	0.17
518.713	0.16
519.063	0.16
519.413	0.16
519.763	0.16
520.113	0.16
520.463	0.17
520.813	0.17
521.163	0.18
521.512	0.17
521.862	0.16
522.212	0.17
522.562	0.17
522.911	0.16
523.261	0.17
523.61	0.16
523.96	0.16
524.309	0.17
524.658	0.17
525.008	0.16
525.357	0.16
525.706	0.17
526.056	0.16
526.405	0.17
526.754	0.16
527.103	0.15
527.452	0.17
527.801	0.17
528.15	0.17
528.499	0.17
528.847	0.17
529.196	0.17
529.545	0.18
529.893	0.18
530.242	0.17
530.591	0.17
530.939	0.18
531.288	0.18
531.636	0.18
531.985	0.18
532.333	0.18
532.681	0.18
533.029	0.18
533.378	0.18
533.726	0.17
534.074	0.18
534.422	0.18
534.77	0.18
535.118	0.18
535.466	0.17
535.814	0.17
536.162	0.17
536.509	0.17
536.857	0.17
537.205	0.18
537.552	0.18
537.9	0.18
538.248	0.18
538.595	0.18
538.943	0.17
539.29	0.17
539.637	0.18
539.985	0.18
540.332	0.17
540.679	0.17
541.026	0.18
541.373	0.18
541.721	0.17
542.068	0.18
542.415	0.18
542.762	0.17
543.108	0.17
543.455	0.17
543.802	0.18
544.149	0.17
544.496	0.18
544.842	0.18
545.189	0.17
545.535	0.17
545.882	0.17
546.228	0.17
546.575	0.16
546.921	0.16
547.267	0.17
547.614	0.17
547.96	0.16
548.306	0.16
548.652	0.17
548.998	0.17
549.344	0.16
549.69	0.17
550.036	0.16
550.382	0.17
550.728	0.17
551.074	0.18
551.42	0.18
551.765	0.18
552.111	0.18
552.457	0.18
552.802	0.18
553.148	0.18
553.493	0.18
553.839	0.17
554.184	0.18
554.529	0.17
554.875	0.18
555.22	0.18
555.565	0.18
555.91	0.18
556.255	0.18
556.6	0.19
556.945	0.17
557.29	0.17
557.635	0.18
557.98	0.18
558.325	0.18
558.67	0.18
559.014	0.18
559.359	0.18
559.704	0.18
560.048	0.16
560.393	0.18
560.737	0.17
561.082	0.18
561.426	0.17
561.77	0.17
562.115	0.16
562.459	0.17
562.803	0.17
563.147	0.18
563.491	0.18
563.835	0.18
564.179	0.18
564.523	0.17
564.867	0.17
565.211	0.17
565.555	0.19
565.899	0.18
566.242	0.17
566.586	0.17
566.93	0.18
567.273	0.18
567.617	0.18
567.96	0.18
568.304	0.18
568.647	0.18
568.99	0.18
569.334	0.19
569.677	0.18
570.02	0.19
570.363	0.18
570.706	0.18
571.049	0.19
571.392	0.18
571.735	0.17
572.078	0.19
572.421	0.19
572.764	0.19
573.106	0.18
573.449	0.18
573.792	0.18
574.134	0.18
574.477	0.19
574.819	0.18
575.162	0.18
575.504	0.18
575.847	0.18
576.189	0.18
576.531	0.17
576.873	0.18
577.215	0.18
577.558	0.18
577.9	0.18
578.242	0.18
578.584	0.17
578.926	0.18
579.267	0.18
579.609	0.18
579.951	0.18
580.293	0.18
580.634	0.18
580.976	0.18
581.318	0.17
581.659	0.18
582.001	0.18
582.342	0.17
582.683	0.18
583.025	0.17
583.366	0.18
583.707	0.18
584.049	0.17
584.39	0.18
584.731	0.18
585.072	0.18
585.413	0.18
585.754	0.19
586.095	0.18
586.435	0.18
586.776	0.18
587.117	0.18
587.458	0.18
587.798	0.18
588.139	0.18
588.48	0.18
588.82	0.18
589.161	0.17
589.501	0.18
589.841	0.18
590.182	0.17
590.522	0.17
590.862	0.18
591.202	0.18
591.542	0.17
591.882	0.18
592.222	0.18
592.562	0.18
592.902	0.17
593.242	0.18
593.582	0.17
593.922	0.17
594.261	0.17
594.601	0.17
594.941	0.17
595.28	0.17
595.62	0.18
595.959	0.18
596.299	0.17
596.638	0.17
596.977	0.17
597.317	0.17
597.656	0.17
597.995	0.17
598.334	0.19
598.673	0.18
599.012	0.17
599.351	0.18
599.69	0.18
600.029	0.19
600.368	0.18
600.707	0.18
601.046	0.18
601.384	0.19
601.723	0.18
602.061	0.18
602.4	0.18
602.738	0.18
603.077	0.18
603.415	0.18
603.754	0.17
604.092	0.18
604.43	0.17
604.768	0.18
605.107	0.18
605.445	0.18
605.783	0.18
606.121	0.17
606.459	0.18
606.796	0.17
607.134	0.17
607.472	0.17
607.81	0.17
608.148	0.17
608.485	0.17
608.823	0.17
609.16	0.17
609.498	0.18
609.835	0.17
610.173	0.17
610.51	0.17
610.847	0.17
611.185	0.18
611.522	0.17
611.859	0.17
612.196	0.18
612.533	0.18
612.87	0.18
613.207	0.17
613.544	0.18
613.881	0.19
614.217	0.19
614.554	0.18
614.891	0.18
615.228	0.19
615.564	0.19
615.901	0.18
616.237	0.18
616.574	0.17
616.91	0.19
617.246	0.18
617.583	0.19
617.919	0.19
618.255	0.19
618.591	0.18
618.927	0.18
619.263	0.19
619.599	0.19
619.935	0.18
620.271	0.18
620.607	0.18
620.943	0.18
621.279	0.18
621.614	0.18
621.95	0.18
622.286	0.18
622.621	0.18
622.957	0.17
623.292	0.17
623.627	0.18
623.963	0.17
624.298	0.17
624.633	0.17
624.968	0.17
625.304	0.17
625.639	0.17
625.974	0.17
626.309	0.16
626.644	0.17
626.979	0.17
627.313	0.18
627.648	0.17
627.983	0.18
628.318	0.17
628.652	0.17
628.987	0.17
629.321	0.17
629.656	0.17
629.99	0.16
630.325	0.16
630.659	0.16
630.993	0.15
631.327	0.16
631.662	0.15
631.996	0.15
632.33	0.16
632.664	0.16
632.998	0.16
633.332	0.15
633.666	0.15
633.999	0.15
634.333	0.15
634.667	0.15
635.001	0.15
635.334	0.15
635.668	0.15
636.001	0.15
636.335	0.15
636.668	0.15
637.001	0.14
637.335	0.15
637.668	0.15
638.001	0.15
638.334	0.15
638.668	0.14
639.001	0.15
639.334	0.14
639.667	0.15
639.999	0.15
640.332	0.15
640.665	0.14
640.998	0.15
641.331	0.15
641.663	0.14
641.996	0.15
642.328	0.15
642.661	0.15
642.993	0.15
643.326	0.16
643.658	0.15
643.99	0.15
644.323	0.15
644.655	0.15
644.987	0.15
645.319	0.15
645.651	0.16
645.983	0.15
646.315	0.15
646.647	0.15
646.979	0.17
647.31	0.16
647.642	0.16
647.974	0.16
648.305	0.16
648.637	0.16
648.968	0.16
649.3	0.15
649.631	0.16
649.963	0.15
650.294	0.16
650.625	0.15
650.957	0.15
651.288	0.15
651.619	0.15
651.95	0.15
652.281	0.15
652.612	0.16
652.943	0.15
653.274	0.15
653.604	0.15
653.935	0.15
654.266	0.15
654.596	0.15
654.927	0.15
655.258	0.15
655.588	0.16
655.918	0.16
656.249	0.13
656.579	0.14
656.909	0.15
657.24	0.14
657.57	0.16
657.9	0.14
658.23	0.14
658.56	0.15
658.89	0.15
659.22	0.14
659.55	0.15
659.88	0.14
660.209	0.15
660.539	0.15
660.869	0.15
661.198	0.15
661.528	0.15
661.857	0.14
662.187	0.15
662.516	0.15
662.846	0.14
663.175	0.14
663.504	0.14
663.833	0.14
664.163	0.15
664.492	0.14
664.821	0.14
665.15	0.14
665.479	0.14
665.807	0.14
666.136	0.14
666.465	0.14
666.794	0.14
667.122	0.14
667.451	0.14
667.78	0.15
668.108	0.15
668.437	0.15
668.765	0.14
669.093	0.15
669.422	0.14
669.75	0.14
670.078	0.14
670.406	0.14
670.734	0.15
671.062	0.15
671.39	0.14
671.718	0.14
672.046	0.14
672.374	0.14
672.702	0.14
673.029	0.13
673.357	0.14
673.685	0.14
674.012	0.14
674.34	0.14
674.667	0.15
674.995	0.14
675.322	0.14
675.649	0.14
675.977	0.13
676.304	0.14
676.631	0.14
676.958	0.14
677.285	0.13
677.612	0.12
677.939	0.13
678.266	0.14
678.593	0.14
678.92	0.13
679.246	0.13
679.573	0.13
679.9	0.13
680.226	0.13
680.553	0.13
680.879	0.13
681.206	0.13
681.532	0.13
681.858	0.13
682.184	0.13
682.511	0.14
682.837	0.13
683.163	0.13
683.489	0.13
683.815	0.13
684.141	0.14
684.467	0.14
684.793	0.13
685.118	0.13
685.444	0.13
685.77	0.13
686.095	0.13
686.421	0.13
686.746	0.13
687.072	0.13
687.397	0.13
687.723	0.13
688.048	0.13
688.373	0.12
688.698	0.13
689.023	0.12
689.349	0.12
689.674	0.12
689.999	0.12
690.323	0.12
690.648	0.11
690.973	0.1
691.298	0.11
691.623	0.12
691.947	0.11
692.272	0.11
692.596	0.12
692.921	0.12
693.245	0.12
693.57	0.13
693.894	0.12
694.218	0.13
694.543	0.12
694.867	0.13
695.191	0.12
695.515	0.13
695.839	0.12
696.163	0.12
696.487	0.12
696.811	0.12
697.135	0.12
697.458	0.11
697.782	0.12
698.106	0.12
698.429	0.12
698.753	0.11
699.076	0.12
699.4	0.12
699.723	0.12
700.046	0.11
700.37	0.12
700.693	0.13
701.016	0.12
701.339	0.12
701.662	0.12
701.985	0.12
702.308	0.12
702.631	0.11
702.954	0.11
703.277	0.11
703.599	0.11
703.922	0.11
704.245	0.1
704.567	0.11
704.89	0.1
705.212	0.11
705.535	0.1
705.857	0.1
706.179	0.1
706.502	0.1
706.824	0.1
707.146	0.1
707.468	0.11
707.79	0.09
708.112	0.1
708.434	0.1
708.756	0.1
709.078	0.1
709.399	0.1
709.721	0.1
710.043	0.11
710.364	0.1
710.686	0.11
711.007	0.1
711.329	0.11
711.65	0.11
711.972	0.1
712.293	0.11
712.614	0.11
712.935	0.11
713.256	0.1
713.577	0.11
713.898	0.11
714.219	0.11
714.54	0.11
714.861	0.1
715.182	0.11
715.503	0.11
715.823	0.1
716.144	0.11
716.464	0.09
716.785	0.1
717.105	0.1
717.426	0.11
717.746	0.1
718.066	0.1
718.387	0.1
718.707	0.09
719.027	0.1
719.347	0.09
719.667	0.1
719.987	0.09
720.307	0.08
720.627	0.09
720.947	0.09
721.266	0.09
721.586	0.08
721.906	0.09
722.225	0.09
722.545	0.09
722.864	0.08
723.184	0.09
723.503	0.09
723.823	0.09
