Data from 12-12-AQDScycling_Absorbance__107__00107.txt Node

Date: Tue Dec 12 11:23:29 EST 2023
User: kyuminlee
Spectrometer: FLMS00943
Trigger mode: 0
Integration Time (sec): 1.000000E-1
Scans to average: 1
Electric dark correction enabled: true
Nonlinearity correction enabled: false
Boxcar width: 0
XAxis mode: Wavelengths
Number of Pixels in Spectrum: 2048
>>>>>Begin Spectral Data<<<<<
179.651	-0
180.037	-0
180.424	-0
180.81	-0.07
181.197	0.51
181.583	-0
181.97	-0.1
182.356	-0
182.743	-0
183.129	0.35
183.515	0.42
183.901	-2.06
184.288	-0
184.674	-0
185.06	-1.22
185.446	-0
185.832	-0
186.218	0.17
186.604	-0.4
186.99	-0.06
187.376	-0
187.762	-0
188.148	0.75
188.534	-0.2
188.92	0.03
189.305	0.07
189.691	0.29
190.077	0.2
190.463	0.09
190.848	0
191.234	0.03
191.619	0.03
192.005	0.1
192.391	0.09
192.776	0.1
193.161	0.16
193.547	0.09
193.932	0.07
194.318	0.02
194.703	0.14
195.088	0.07
195.473	0.19
195.859	0.19
196.244	0.14
196.629	0.08
197.014	0.13
197.399	0.09
197.784	0.15
198.169	0.15
198.554	0.25
198.939	0.08
199.324	0.08
199.709	0.15
200.094	0.16
200.478	0.15
200.863	0.13
201.248	0.09
201.633	0.06
202.017	0.1
202.402	0.22
202.787	0.09
203.171	0.11
203.556	0.2
203.94	0.09
204.325	0.19
204.709	0.22
205.093	0.22
205.478	0.45
205.862	0.04
206.246	0.25
206.631	0.13
207.015	0.08
207.399	0.07
207.783	0.15
208.167	0.1
208.551	0.31
208.935	0.19
209.319	0.08
209.703	0.23
210.087	0.31
210.471	0
210.855	0.18
211.239	0.25
211.623	0.25
212.007	0.26
212.39	0.42
212.774	0.1
213.158	0.2
213.541	0.09
213.925	0.22
214.309	0.39
214.692	0.25
215.076	0.2
215.459	0.26
215.842	0.13
216.226	0.31
216.609	0.22
216.993	0.23
217.376	0.36
217.759	0.2
218.142	0.37
218.525	0.34
218.909	0.33
219.292	0.31
219.675	0.44
220.058	0.38
220.441	0.66
220.824	0.59
221.207	0.51
221.59	0.43
221.973	0.5
222.355	0.55
222.738	0.67
223.121	0.61
223.504	0.58
223.886	0.59
224.269	0.75
224.652	0.57
225.034	0.78
225.417	0.7
225.799	0.8
226.182	0.82
226.564	0.81
226.947	0.67
227.329	0.81
227.711	0.94
228.094	0.88
228.476	0.93
228.858	0.87
229.24	0.8
229.623	0.91
230.005	0.92
230.387	0.74
230.769	0.82
231.151	0.88
231.533	0.98
231.915	0.97
232.297	1.02
232.679	1
233.061	0.96
233.442	0.89
233.824	0.9
234.206	1.05
234.588	1
234.969	1.19
235.351	0.98
235.733	1.02
236.114	1.11
236.496	1.17
236.877	1.05
237.259	0.95
237.64	1.02
238.022	1.1
238.403	1.03
238.784	0.92
239.165	1.01
239.547	1.01
239.928	1.08
240.309	1.13
240.69	1.04
241.071	1.05
241.452	1.1
241.834	1
242.215	1.16
242.595	1.01
242.976	1.18
243.357	1.19
243.738	1.07
244.119	1.12
244.5	0.99
244.881	1.31
245.261	1.11
245.642	1.27
246.023	1.16
246.403	1.25
246.784	1.35
247.164	1.29
247.545	1.3
247.925	1.39
248.306	1.12
248.686	1.37
249.067	1.29
249.447	1.29
249.827	1.41
250.207	1.39
250.588	1.26
250.968	1.71
251.348	1.34
251.728	1.42
252.108	1.34
252.488	1.44
252.868	1.34
253.248	1.3
253.628	1.34
254.008	1.42
254.388	1.28
254.768	1.28
255.147	1.42
255.527	1.43
255.907	1.33
256.287	1.32
256.666	1.44
257.046	1.46
257.425	1.7
257.805	1.24
258.184	1.31
258.564	1.43
258.943	1.41
259.323	1.57
259.702	1.46
260.081	1.33
260.461	1.35
260.84	1.48
261.219	1.7
261.598	1.43
261.977	1.41
262.356	1.41
262.736	1.52
263.115	1.69
263.494	1.55
263.873	1.44
264.251	1.45
264.63	1.42
265.009	1.42
265.388	1.46
265.767	1.3
266.145	1.53
266.524	1.34
266.903	1.28
267.281	1.3
267.66	1.46
268.039	1.38
268.417	1.4
268.796	1.38
269.174	1.5
269.552	1.26
269.931	1.29
270.309	1.39
270.687	1.79
271.066	1.52
271.444	1.32
271.822	1.47
272.2	1.41
272.578	1.4
272.956	1.42
273.334	1.35
273.712	1.37
274.09	1.5
274.468	1.32
274.846	1.31
275.224	1.33
275.602	1.39
275.98	1.5
276.357	1.35
276.735	1.39
277.113	1.31
277.49	1.25
277.868	1.34
278.246	1.27
278.623	1.23
279.001	1.27
279.378	1.34
279.756	1.46
280.133	1.72
280.51	1.38
280.888	1.5
281.265	1.43
281.642	1.41
282.019	1.66
282.396	1.53
282.773	1.38
283.151	1.46
283.528	1.39
283.905	1.44
284.282	1.63
284.659	1.62
285.035	1.35
285.412	1.3
285.789	1.59
286.166	1.47
286.543	1.55
286.919	1.43
287.296	1.32
287.673	1.64
288.049	1.54
288.426	1.52
288.802	1.52
289.179	1.47
289.555	1.64
289.932	1.49
290.308	1.29
290.684	1.3
291.061	1.35
291.437	1.47
291.813	1.3
292.189	1.31
292.565	1.31
292.942	1.28
293.318	1.33
293.694	1.51
294.07	1.28
294.446	1.26
294.822	1.49
295.197	1.49
295.573	1.6
295.949	1.41
296.325	1.48
296.701	1.45
297.076	1.4
297.452	1.49
297.828	1.27
298.203	1.46
298.579	1.25
298.954	1.3
299.33	1.25
299.705	1.32
300.081	1.31
300.456	1.24
300.831	1.23
301.206	1.23
301.582	1.29
301.957	1.18
302.332	1.22
302.707	1.19
303.082	1.12
303.457	1.11
303.832	1.1
304.207	1.06
304.582	1.09
304.957	1.06
305.332	1.02
305.707	0.99
306.082	1
306.456	1.02
306.831	0.96
307.206	0.92
307.58	0.94
307.955	0.91
308.33	0.91
308.704	0.89
309.079	0.84
309.453	0.87
309.828	0.88
310.202	0.82
310.576	0.82
310.951	0.83
311.325	0.8
311.699	0.79
312.073	0.76
312.447	0.74
312.821	0.74
313.196	0.72
313.57	0.67
313.944	0.7
314.317	0.68
314.691	0.7
315.065	0.69
315.439	0.66
315.813	0.67
316.187	0.65
316.56	0.67
316.934	0.64
317.308	0.65
317.681	0.64
318.055	0.66
318.428	0.63
318.802	0.64
319.175	0.61
319.549	0.62
319.922	0.62
320.295	0.61
320.669	0.65
321.042	0.62
321.415	0.62
321.788	0.59
322.162	0.58
322.535	0.6
322.908	0.58
323.281	0.55
323.654	0.59
324.027	0.57
324.4	0.56
324.773	0.58
325.145	0.59
325.518	0.57
325.891	0.58
326.264	0.57
326.636	0.57
327.009	0.57
327.382	0.58
327.754	0.6
328.127	0.62
328.499	0.6
328.872	0.62
329.244	0.6
329.616	0.59
329.989	0.62
330.361	0.6
330.733	0.62
331.106	0.61
331.478	0.64
331.85	0.61
332.222	0.62
332.594	0.65
332.966	0.66
333.338	0.7
333.71	0.68
334.082	0.68
334.454	0.7
334.826	0.71
335.197	0.7
335.569	0.7
335.941	0.71
336.312	0.73
336.684	0.72
337.056	0.75
337.427	0.77
337.799	0.79
338.17	0.77
338.542	0.81
338.913	0.79
339.284	0.8
339.656	0.79
340.027	0.82
340.398	0.81
340.769	0.81
341.141	0.84
341.512	0.85
341.883	0.84
342.254	0.87
342.625	0.9
342.996	0.9
343.367	0.96
343.738	0.91
344.108	0.9
344.479	1.03
344.85	0.91
345.221	0.97
345.591	0.98
345.962	1.03
346.333	1.03
346.703	0.95
347.074	1
347.444	1.03
347.815	1.05
348.185	1.11
348.556	1.03
348.926	1.12
349.296	1.09
349.666	1.1
350.037	1.05
350.407	1.09
350.777	1.16
351.147	1.15
351.517	1.18
351.887	1.2
352.257	1.2
352.627	1.18
352.997	1.29
353.367	1.3
353.737	1.27
354.106	1.35
354.476	1.2
354.846	1.34
355.216	1.32
355.585	1.35
355.955	1.37
356.324	1.36
356.694	1.35
357.063	1.38
357.433	1.37
357.802	1.39
358.171	1.46
358.541	1.46
358.91	1.46
359.279	1.45
359.648	1.4
360.017	1.5
360.387	1.45
360.756	1.41
361.125	1.47
361.494	1.62
361.863	1.54
362.231	1.47
362.6	1.6
362.969	1.59
363.338	1.43
363.707	1.71
364.075	1.59
364.444	1.47
364.813	1.54
365.181	1.5
365.55	1.44
365.918	1.63
366.287	1.58
366.655	1.66
367.024	1.62
367.392	1.64
367.76	1.44
368.128	1.52
368.497	1.48
368.865	1.62
369.233	1.51
369.601	1.45
369.969	1.44
370.337	1.46
370.705	1.48
371.073	1.61
371.441	1.56
371.809	1.45
372.177	1.48
372.544	1.52
372.912	1.49
373.28	1.47
373.647	1.6
374.015	1.78
374.383	1.72
374.75	1.79
375.118	1.53
375.485	1.59
375.853	1.53
376.22	1.57
376.587	1.59
376.955	1.65
377.322	1.68
377.689	1.63
378.056	1.44
378.423	1.57
378.79	1.49
379.157	1.56
379.524	1.46
379.891	1.54
380.258	1.68
380.625	1.42
380.992	1.56
381.359	1.59
381.726	1.66
382.092	1.52
382.459	1.62
382.826	1.48
383.192	1.45
383.559	1.51
383.925	1.65
384.292	1.57
384.658	1.64
385.025	1.51
385.391	1.74
385.757	1.6
386.123	1.71
386.49	1.46
386.856	1.66
387.222	1.74
387.588	1.56
387.954	1.6
388.32	1.51
388.686	1.72
389.052	1.53
389.418	1.84
389.784	1.47
390.15	1.62
390.515	1.44
390.881	1.63
391.247	1.4
391.613	1.73
391.978	1.46
392.344	1.57
392.709	1.66
393.075	1.65
393.44	1.52
393.806	1.58
394.171	1.42
394.536	1.66
394.902	1.7
395.267	1.58
395.632	1.43
395.997	1.58
396.362	1.45
396.727	1.51
397.092	1.48
397.457	1.65
397.822	1.55
398.187	1.59
398.552	1.41
398.917	1.56
399.282	1.5
399.646	1.43
400.011	1.7
400.376	1.49
400.74	1.53
401.105	1.44
401.47	1.44
401.834	1.67
402.199	1.47
402.563	1.53
402.927	1.38
403.292	1.69
403.656	1.5
404.02	1.5
404.384	1.59
404.749	1.45
405.113	1.61
405.477	1.68
405.841	1.52
406.205	1.58
406.569	1.58
406.933	1.63
407.296	1.48
407.66	1.53
408.024	1.48
408.388	1.65
408.752	1.58
409.115	1.75
409.479	1.55
409.842	1.51
410.206	1.43
410.569	1.45
410.933	1.55
411.296	1.42
411.66	1.44
412.023	1.41
412.386	1.54
412.749	1.39
413.113	1.5
413.476	1.4
413.839	1.56
414.202	1.52
414.565	1.44
414.928	1.43
415.291	1.35
415.654	1.49
416.017	1.76
416.38	1.46
416.742	1.44
417.105	1.47
417.468	1.55
417.83	1.47
418.193	1.64
418.556	1.41
418.918	1.32
419.281	1.48
419.643	1.55
420.005	1.54
420.368	1.5
420.73	1.44
421.092	1.69
421.455	1.55
421.817	1.45
422.179	1.46
422.541	1.58
422.903	1.61
423.265	1.68
423.627	1.48
423.989	1.48
424.351	1.53
424.713	1.52
425.075	1.49
425.436	1.58
425.798	1.47
426.16	1.57
426.521	1.47
426.883	1.58
427.245	1.44
427.606	1.44
427.967	1.39
428.329	1.48
428.69	1.57
429.052	1.4
429.413	1.73
429.774	1.56
430.135	1.53
430.497	1.7
430.858	1.51
431.219	1.58
431.58	1.47
431.941	1.47
432.302	1.5
432.663	1.63
433.024	1.53
433.384	1.67
433.745	1.49
434.106	1.68
434.467	1.6
434.827	1.51
435.188	1.47
435.548	1.75
435.909	1.44
436.269	1.63
436.63	1.55
436.99	1.49
437.351	1.43
437.711	1.51
438.071	1.4
438.431	1.52
438.792	1.44
439.152	1.48
439.512	1.49
439.872	1.42
440.232	1.55
440.592	1.46
440.952	1.39
441.312	1.44
441.671	1.51
442.031	1.56
442.391	1.48
442.751	1.45
443.11	1.51
443.47	1.43
443.83	1.37
444.189	1.45
444.549	1.42
444.908	1.36
445.267	1.46
445.627	1.38
445.986	1.37
446.345	1.42
446.705	1.39
447.064	1.41
447.423	1.34
447.782	1.4
448.141	1.4
448.5	1.28
448.859	1.32
449.218	1.32
449.577	1.36
449.936	1.38
450.295	1.42
450.653	1.32
451.012	1.29
451.371	1.38
451.729	1.33
452.088	1.35
452.447	1.34
452.805	1.3
453.163	1.28
453.522	1.34
453.88	1.29
454.239	1.31
454.597	1.23
454.955	1.22
455.313	1.24
455.671	1.22
456.029	1.2
456.388	1.21
456.746	1.19
457.104	1.16
457.461	1.14
457.819	1.15
458.177	1.13
458.535	1.12
458.893	1.11
459.25	1.08
459.608	1.08
459.966	1.05
460.323	1.04
460.681	1.03
461.038	1.02
461.396	1.01
461.753	1
462.111	0.99
462.468	0.97
462.825	0.95
463.182	0.94
463.54	0.91
463.897	0.91
464.254	0.9
464.611	0.9
464.968	0.88
465.325	0.87
465.682	0.86
466.039	0.85
466.395	0.82
466.752	0.81
467.109	0.8
467.466	0.79
467.822	0.78
468.179	0.77
468.535	0.75
468.892	0.74
469.248	0.73
469.605	0.7
469.961	0.71
470.318	0.71
470.674	0.68
471.03	0.67
471.386	0.66
471.743	0.64
472.099	0.64
472.455	0.62
472.811	0.62
473.167	0.61
473.523	0.59
473.879	0.57
474.235	0.58
474.59	0.56
474.946	0.54
475.302	0.54
475.657	0.52
476.013	0.52
476.369	0.5
476.724	0.5
477.08	0.5
477.435	0.49
477.791	0.48
478.146	0.47
478.501	0.46
478.857	0.45
479.212	0.44
479.567	0.43
479.922	0.42
480.277	0.42
480.632	0.4
480.987	0.4
481.342	0.39
481.697	0.38
482.052	0.37
482.407	0.36
482.762	0.36
483.116	0.34
483.471	0.34
483.826	0.32
484.18	0.32
484.535	0.31
484.89	0.31
485.244	0.32
485.598	0.31
485.953	0.3
486.307	0.29
486.661	0.29
487.016	0.27
487.37	0.27
487.724	0.27
488.078	0.26
488.432	0.25
488.786	0.25
489.14	0.25
489.494	0.23
489.848	0.23
490.202	0.23
490.556	0.23
490.91	0.22
491.263	0.21
491.617	0.21
491.971	0.21
492.324	0.2
492.678	0.2
493.031	0.2
493.385	0.19
493.738	0.19
494.091	0.18
494.445	0.17
494.798	0.17
495.151	0.17
495.504	0.17
495.857	0.16
496.21	0.17
496.564	0.16
496.916	0.16
497.269	0.15
497.622	0.16
497.975	0.15
498.328	0.15
498.681	0.14
499.033	0.14
499.386	0.13
499.739	0.13
500.091	0.13
500.444	0.13
500.796	0.12
501.149	0.12
501.501	0.12
501.854	0.12
502.206	0.12
502.558	0.12
502.91	0.12
503.263	0.11
503.615	0.11
503.967	0.11
504.319	0.11
504.671	0.1
505.023	0.1
505.375	0.1
505.726	0.1
506.078	0.09
506.43	0.08
506.782	0.08
507.133	0.09
507.485	0.09
507.837	0.09
508.188	0.08
508.54	0.09
508.891	0.1
509.243	0.09
509.594	0.08
509.945	0.09
510.296	0.07
510.648	0.08
510.999	0.07
511.35	0.07
511.701	0.07
512.052	0.08
512.403	0.07
512.754	0.06
513.105	0.07
513.456	0.06
513.807	0.06
514.157	0.06
514.508	0.06
514.859	0.05
515.209	0.06
515.56	0.07
515.91	0.05
516.261	0.06
516.611	0.05
516.962	0.06
517.312	0.06
517.662	0.06
518.013	0.06
518.363	0.06
518.713	0.05
519.063	0.06
519.413	0.05
519.763	0.05
520.113	0.05
520.463	0.06
520.813	0.06
521.163	0.05
521.512	0.05
521.862	0.05
522.212	0.05
522.562	0.05
522.911	0.05
523.261	0.05
523.61	0.05
523.96	0.05
524.309	0.05
524.658	0.05
525.008	0.04
525.357	0.05
525.706	0.05
526.056	0.05
526.405	0.05
526.754	0.05
527.103	0.04
527.452	0.05
527.801	0.05
528.15	0.05
528.499	0.05
528.847	0.05
529.196	0.05
529.545	0.05
529.893	0.06
530.242	0.05
530.591	0.05
530.939	0.06
531.288	0.05
531.636	0.05
531.985	0.05
532.333	0.05
532.681	0.04
533.029	0.05
533.378	0.04
533.726	0.04
534.074	0.05
534.422	0.04
534.77	0.04
535.118	0.04
535.466	0.04
535.814	0.04
536.162	0.04
536.509	0.05
536.857	0.04
537.205	0.04
537.552	0.04
537.9	0.04
538.248	0.03
538.595	0.04
538.943	0.04
539.29	0.04
539.637	0.03
539.985	0.03
540.332	0.03
540.679	0.03
541.026	0.02
541.373	0.04
541.721	0.03
542.068	0.02
542.415	0.03
542.762	0.03
543.108	0.02
543.455	0.02
543.802	0.02
544.149	0.02
544.496	0.03
544.842	0.03
545.189	0.02
545.535	0.03
545.882	0.03
546.228	0.02
546.575	0.02
546.921	0.02
547.267	0.02
547.614	0.02
547.96	0.02
548.306	0.03
548.652	0.02
548.998	0.03
549.344	0.03
549.69	0.03
550.036	0.03
550.382	0.03
550.728	0.03
551.074	0.03
551.42	0.03
551.765	0.03
552.111	0.03
552.457	0.04
552.802	0.02
553.148	0.03
553.493	0.03
553.839	0.03
554.184	0.03
554.529	0.02
554.875	0.03
555.22	0.03
555.565	0.03
555.91	0.03
556.255	0.04
556.6	0.04
556.945	0.02
557.29	0.03
557.635	0.03
557.98	0.03
558.325	0.03
558.67	0.03
559.014	0.02
559.359	0.03
559.704	0.03
560.048	0.01
560.393	0.02
560.737	0.01
561.082	0.02
561.426	0.02
561.77	0.02
562.115	0.02
562.459	0.02
562.803	0.02
563.147	0.02
563.491	0.02
563.835	0.02
564.179	0.02
564.523	0.02
564.867	0.01
565.211	0.02
565.555	0.02
565.899	0.03
566.242	0.02
566.586	0.02
566.93	0.03
567.273	0.03
567.617	0.03
567.96	0.02
568.304	0.03
568.647	0.02
568.99	0.03
569.334	0.03
569.677	0.02
570.02	0.04
570.363	0.02
570.706	0.02
571.049	0.03
571.392	0.03
571.735	0.02
572.078	0.03
572.421	0.03
572.764	0.02
573.106	0.02
573.449	0.03
573.792	0.02
574.134	0.03
574.477	0.03
574.819	0.03
575.162	0.02
575.504	0.02
575.847	0.02
576.189	0.02
576.531	0.02
576.873	0.02
577.215	0.02
577.558	0.02
577.9	0.02
578.242	0.02
578.584	0.02
578.926	0.02
579.267	0.01
579.609	0.01
579.951	0.01
580.293	0.01
580.634	0.02
580.976	0.02
581.318	0.01
581.659	0.01
582.001	0.02
582.342	0.02
582.683	0.02
583.025	0.01
583.366	0.01
583.707	0.02
584.049	0.02
584.39	0.02
584.731	0.02
585.072	0.01
585.413	0.02
585.754	0.02
586.095	0.03
586.435	0.02
586.776	0.02
587.117	0.02
587.458	0.01
587.798	0.02
588.139	0.01
588.48	0.02
588.82	0.01
589.161	0.01
589.501	0.01
589.841	0.02
590.182	0.01
590.522	0.01
590.862	0.02
591.202	0.02
591.542	0.01
591.882	0.01
592.222	0.01
592.562	0.01
592.902	0.01
593.242	0.01
593.582	0.03
593.922	0.01
594.261	0.01
594.601	0.01
594.941	0.01
595.28	0.02
595.62	0.01
595.959	0.02
596.299	0.01
596.638	0.01
596.977	0.02
597.317	0.01
597.656	0.02
597.995	0.01
598.334	0.02
598.673	0.02
599.012	0.01
599.351	0.01
599.69	0.01
600.029	0.02
600.368	0.02
600.707	0.02
601.046	0.01
601.384	0.02
601.723	0.02
602.061	0.01
602.4	0.02
602.738	0.02
603.077	0.02
603.415	0.01
603.754	0.02
604.092	0.02
604.43	0.02
604.768	0.02
605.107	0.02
605.445	0.01
605.783	0.01
606.121	0.02
606.459	0.02
606.796	0.02
607.134	0.01
607.472	0.02
607.81	0.02
608.148	0.02
608.485	0.02
608.823	0.02
609.16	0.01
609.498	0.02
609.835	0.02
610.173	0.02
610.51	0.02
610.847	0.02
611.185	0.02
611.522	0.03
611.859	0.03
612.196	0.03
612.533	0.03
612.87	0.03
613.207	0.03
613.544	0.04
613.881	0.03
614.217	0.04
614.554	0.03
614.891	0.03
615.228	0.04
615.564	0.03
615.901	0.03
616.237	0.03
616.574	0.03
616.91	0.04
617.246	0.03
617.583	0.03
617.919	0.03
618.255	0.03
618.591	0.03
618.927	0.03
619.263	0.03
619.599	0.04
619.935	0.03
620.271	0.04
620.607	0.03
620.943	0.03
621.279	0.04
621.614	0.03
621.95	0.03
622.286	0.02
622.621	0.02
622.957	0.02
623.292	0.02
623.627	0.02
623.963	0.02
624.298	0.02
624.633	0.02
624.968	0.02
625.304	0.02
625.639	0.02
625.974	0.02
626.309	0.02
626.644	0.02
626.979	0.03
627.313	0.02
627.648	0.02
627.983	0.03
628.318	0.02
628.652	0.02
628.987	0.02
629.321	0.03
629.656	0.02
629.99	0.02
630.325	0.03
630.659	0.02
630.993	0.02
631.327	0.02
631.662	0.02
631.996	0.02
632.33	0.02
632.664	0.03
632.998	0.01
633.332	0.02
633.666	0.02
633.999	0.02
634.333	0.01
634.667	0.01
635.001	0.01
635.334	0.02
635.668	0.01
636.001	0.01
636.335	0.02
636.668	0.02
637.001	0.01
637.335	0.02
637.668	0.02
638.001	0.01
638.334	0.02
638.668	0.01
639.001	0.01
639.334	0.01
639.667	0.01
639.999	0.01
640.332	0.01
640.665	0.01
640.998	0.02
641.331	0.02
641.663	0.01
641.996	0.02
642.328	0.02
642.661	0.02
642.993	0.02
643.326	0.02
643.658	0.02
643.99	0.01
644.323	0.02
644.655	0.02
644.987	0.02
645.319	0.02
645.651	0.02
645.983	0.02
646.315	0.02
646.647	0.03
646.979	0.03
647.31	0.03
647.642	0.03
647.974	0.02
648.305	0.03
648.637	0.03
648.968	0.03
649.3	0.03
649.631	0.03
649.963	0.03
650.294	0.03
650.625	0.03
650.957	0.03
651.288	0.03
651.619	0.03
651.95	0.03
652.281	0.03
652.612	0.02
652.943	0.03
653.274	0.03
653.604	0.03
653.935	0.03
654.266	0.03
654.596	0.02
654.927	0.02
655.258	0.02
655.588	0.03
655.918	0.03
656.249	0.01
656.579	0.02
656.909	0.03
657.24	0.02
657.57	0.04
657.9	0.03
658.23	0.03
658.56	0.04
658.89	0.03
659.22	0.02
659.55	0.03
659.88	0.04
660.209	0.03
660.539	0.04
660.869	0.03
661.198	0.03
661.528	0.04
661.857	0.03
662.187	0.03
662.516	0.03
662.846	0.03
663.175	0.03
663.504	0.03
663.833	0.03
664.163	0.03
664.492	0.03
664.821	0.03
665.15	0.03
665.479	0.03
665.807	0.03
666.136	0.02
666.465	0.03
666.794	0.03
667.122	0.03
667.451	0.02
667.78	0.03
668.108	0.03
668.437	0.02
668.765	0.02
669.093	0.03
669.422	0.03
669.75	0.03
670.078	0.02
670.406	0.03
670.734	0.03
671.062	0.03
671.39	0.03
671.718	0.03
672.046	0.03
672.374	0.03
672.702	0.03
673.029	0.02
673.357	0.03
673.685	0.04
674.012	0.03
674.34	0.02
674.667	0.03
674.995	0.03
675.322	0.03
675.649	0.03
675.977	0.03
676.304	0.03
676.631	0.03
676.958	0.03
677.285	0.02
677.612	0.02
677.939	0.03
678.266	0.03
678.593	0.02
678.92	0.02
679.246	0.02
679.573	0.02
679.9	0.02
680.226	0.02
680.553	0.01
680.879	0.02
681.206	0.02
681.532	0.02
681.858	0.02
682.184	0.02
682.511	0.02
682.837	0.02
683.163	0.02
683.489	0.03
683.815	0.02
684.141	0.02
684.467	0.02
684.793	0.02
685.118	0.02
685.444	0.02
685.77	0.02
686.095	0.03
686.421	0.03
686.746	0.02
687.072	0.02
687.397	0.03
687.723	0.03
688.048	0.03
688.373	0.03
688.698	0.02
689.023	0.02
689.349	0.03
689.674	0.03
689.999	0.02
690.323	0.02
690.648	0.01
690.973	0.01
691.298	0.01
691.623	0.01
691.947	0.01
692.272	0.01
692.596	0.02
692.921	0.02
693.245	0.02
693.57	0.02
693.894	0.02
694.218	0.02
694.543	0.02
694.867	0.02
695.191	0.02
695.515	0.02
695.839	0.02
696.163	0.02
696.487	0.02
696.811	0.01
697.135	0.02
697.458	0.03
697.782	0.02
698.106	0.03
698.429	0.02
698.753	0.02
699.076	0.02
699.4	0.02
699.723	0.02
700.046	0.01
700.37	0.02
700.693	0.02
701.016	0.02
701.339	0.02
701.662	0.03
701.985	0.03
702.308	0.02
702.631	0.02
702.954	0.03
703.277	0.03
703.599	0.03
703.922	0.02
704.245	0.02
704.567	0.02
704.89	0.02
705.212	0.02
705.535	0.02
705.857	0.01
706.179	0.01
706.502	0.02
706.824	0.01
707.146	0.01
707.468	0.02
707.79	0.01
708.112	0.02
708.434	0.02
708.756	0.02
709.078	0.02
709.399	0.01
709.721	0.02
710.043	0.02
710.364	0.01
710.686	0.02
711.007	0.02
711.329	0.02
711.65	0.01
711.972	0.02
712.293	0.02
712.614	0.02
712.935	0.02
713.256	0.02
713.577	0.03
713.898	0.02
714.219	0.02
714.54	0.02
714.861	0.01
715.182	0.02
715.503	0.02
715.823	0.02
716.144	0.02
716.464	0.01
716.785	0.02
717.105	0.02
717.426	0.03
717.746	0.02
718.066	0.01
718.387	0.02
718.707	0.01
719.027	0.02
719.347	0.01
719.667	0.02
719.987	0.01
720.307	0
720.627	0.01
720.947	0.01
721.266	0.01
721.586	0.01
721.906	0.01
722.225	0
722.545	0.01
722.864	0
723.184	0.01
723.503	0.01
723.823	0.01
724.142	0.01
