Data from 12-12-AQDScycling_Absorbance__284__00284.txt Node

Date: Tue Dec 12 12:07:44 EST 2023
User: kyuminlee
Spectrometer: FLMS00943
Trigger mode: 0
Integration Time (sec): 1.000000E-1
Scans to average: 1
Electric dark correction enabled: true
Nonlinearity correction enabled: false
Boxcar width: 0
XAxis mode: Wavelengths
Number of Pixels in Spectrum: 2048
>>>>>Begin Spectral Data<<<<<
179.651	-0
180.037	-0
180.424	-0
180.81	0.29
181.197	0.14
181.583	-0
181.97	0.04
182.356	-0
182.743	-1.46
183.129	0.57
183.515	0.35
183.901	-0
184.288	0.59
184.674	0.77
185.06	-1.1
185.446	-0
185.832	-0
186.218	-0
186.604	0.24
186.99	-0
187.376	0.79
187.762	-0
188.148	0.06
188.534	0
188.92	0.09
189.305	0.14
189.691	0.11
190.077	0.18
190.463	0.16
190.848	0.11
191.234	0.03
191.619	0.1
192.005	0.18
192.391	0.15
192.776	0.18
193.161	0.11
193.547	0.3
193.932	0.15
194.318	0.09
194.703	0.12
195.088	0.1
195.473	0.34
195.859	0.32
196.244	0.19
196.629	0.12
197.014	0.07
197.399	0.12
197.784	0.13
198.169	0.07
198.554	0.31
198.939	0.09
199.324	0.05
199.709	0.05
200.094	0.22
200.478	0.08
200.863	0.13
201.248	0.14
201.633	0.12
202.017	0.17
202.402	0.18
202.787	0.1
203.171	0.16
203.556	0.17
203.94	0.22
204.325	0.29
204.709	0.15
205.093	0.16
205.478	0.19
205.862	0.08
206.246	0.2
206.631	0.29
207.015	0.1
207.399	0.13
207.783	0.2
208.167	0.26
208.551	0.17
208.935	0.3
209.319	0.26
209.703	0.21
210.087	0.33
210.471	0.07
210.855	0.15
211.239	0.22
211.623	0.22
212.007	0.32
212.39	0.32
212.774	0.25
213.158	0.06
213.541	0.23
213.925	0.31
214.309	0.19
214.692	0.29
215.076	0.28
215.459	0.29
215.842	0.18
216.226	0.21
216.609	0.28
216.993	0.22
217.376	0.54
217.759	0.11
218.142	0.25
218.525	0.48
218.909	0.33
219.292	0.31
219.675	0.48
220.058	0.41
220.441	0.6
220.824	0.44
221.207	0.59
221.59	0.57
221.973	0.69
222.355	0.62
222.738	0.67
223.121	0.61
223.504	0.62
223.886	0.7
224.269	0.73
224.652	0.66
225.034	0.71
225.417	0.93
225.799	0.82
226.182	0.89
226.564	0.81
226.947	0.74
227.329	0.79
227.711	1.14
228.094	0.84
228.476	0.9
228.858	0.72
229.24	0.78
229.623	0.85
230.005	0.84
230.387	0.84
230.769	0.83
231.151	0.97
231.533	0.86
231.915	1
232.297	1.03
232.679	0.95
233.061	1.04
233.442	1.08
233.824	1.06
234.206	1.05
234.588	1.09
234.969	1.03
235.351	0.97
235.733	1.07
236.114	1.28
236.496	1.09
236.877	1.06
237.259	1.13
237.64	1.06
238.022	1.02
238.403	1.02
238.784	0.98
239.165	0.91
239.547	1.13
239.928	1.2
240.309	1.13
240.69	1.15
241.071	1.08
241.452	1.12
241.834	1.09
242.215	1
242.595	1.02
242.976	1.03
243.357	1.01
243.738	1.08
244.119	1.27
244.5	1.09
244.881	1.26
245.261	1.14
245.642	1.15
246.023	1.2
246.403	1.2
246.784	1.17
247.164	1.39
247.545	1.29
247.925	1.19
248.306	1.2
248.686	1.43
249.067	1.37
249.447	1.35
249.827	1.42
250.207	1.21
250.588	1.33
250.968	1.49
251.348	1.43
251.728	1.56
252.108	1.26
252.488	1.49
252.868	1.36
253.248	1.34
253.628	1.29
254.008	1.46
254.388	1.45
254.768	1.35
255.147	1.35
255.527	1.39
255.907	1.42
256.287	1.47
256.666	1.37
257.046	1.5
257.425	1.56
257.805	1.31
258.184	1.26
258.564	1.39
258.943	1.41
259.323	1.45
259.702	1.49
260.081	1.38
260.461	1.44
260.84	1.49
261.219	1.55
261.598	1.49
261.977	1.55
262.356	1.6
262.736	1.45
263.115	1.49
263.494	1.39
263.873	1.42
264.251	1.5
264.63	1.66
265.009	1.39
265.388	1.5
265.767	1.39
266.145	1.46
266.524	1.45
266.903	1.46
267.281	1.53
267.66	1.63
268.039	1.48
268.417	1.47
268.796	1.36
269.174	1.45
269.552	1.4
269.931	1.49
270.309	1.47
270.687	1.53
271.066	1.58
271.444	1.49
271.822	1.62
272.2	1.39
272.578	1.43
272.956	1.68
273.334	1.61
273.712	1.51
274.09	1.54
274.468	1.46
274.846	1.42
275.224	1.3
275.602	1.43
275.98	1.59
276.357	1.45
276.735	1.45
277.113	1.51
277.49	1.35
277.868	1.26
278.246	1.57
278.623	1.37
279.001	1.37
279.378	1.3
279.756	1.63
280.133	1.53
280.51	1.5
280.888	1.42
281.265	1.38
281.642	1.51
282.019	1.55
282.396	1.73
282.773	1.63
283.151	1.51
283.528	1.53
283.905	1.44
284.282	1.66
284.659	1.7
285.035	1.39
285.412	1.4
285.789	1.52
286.166	1.38
286.543	1.52
286.919	1.61
287.296	1.47
287.673	1.7
288.049	1.48
288.426	1.56
288.802	1.49
289.179	1.55
289.555	1.86
289.932	1.51
290.308	1.43
290.684	1.46
291.061	1.45
291.437	1.57
291.813	1.35
292.189	1.42
292.565	1.43
292.942	1.33
293.318	1.38
293.694	1.59
294.07	1.3
294.446	1.49
294.822	1.51
295.197	1.41
295.573	1.44
295.949	1.37
296.325	1.38
296.701	1.61
297.076	1.54
297.452	1.81
297.828	1.6
298.203	1.8
298.579	1.52
298.954	1.43
299.33	1.46
299.705	1.44
300.081	1.42
300.456	1.53
300.831	1.4
301.206	1.41
301.582	1.58
301.957	1.44
302.332	1.52
302.707	1.36
303.082	1.48
303.457	1.46
303.832	1.43
304.207	1.35
304.582	1.35
304.957	1.39
305.332	1.47
305.707	1.4
306.082	1.45
306.456	1.54
306.831	1.41
307.206	1.46
307.58	1.6
307.955	1.48
308.33	1.4
308.704	1.41
309.079	1.4
309.453	1.59
309.828	1.42
310.202	1.38
310.576	1.39
310.951	1.52
311.325	1.33
311.699	1.4
312.073	1.37
312.447	1.37
312.821	1.42
313.196	1.54
313.57	1.25
313.944	1.47
314.317	1.35
314.691	1.4
315.065	1.5
315.439	1.38
315.813	1.34
316.187	1.33
316.56	1.51
316.934	1.5
317.308	1.34
317.681	1.42
318.055	1.4
318.428	1.46
318.802	1.57
319.175	1.37
319.549	1.41
319.922	1.32
320.295	1.36
320.669	1.47
321.042	1.42
321.415	1.65
321.788	1.45
322.162	1.33
322.535	1.46
322.908	1.43
323.281	1.48
323.654	1.54
324.027	1.52
324.4	1.48
324.773	1.49
325.145	1.41
325.518	1.42
325.891	1.39
326.264	1.54
326.636	1.29
327.009	1.38
327.382	1.47
327.754	1.48
328.127	1.36
328.499	1.42
328.872	1.51
329.244	1.45
329.616	1.46
329.989	1.35
330.361	1.43
330.733	1.37
331.106	1.38
331.478	1.46
331.85	1.36
332.222	1.44
332.594	1.47
332.966	1.42
333.338	1.51
333.71	1.56
334.082	1.54
334.454	1.38
334.826	1.53
335.197	1.43
335.569	1.48
335.941	1.44
336.312	1.5
336.684	1.41
337.056	1.45
337.427	1.53
337.799	1.58
338.17	1.58
338.542	1.49
338.913	1.52
339.284	1.56
339.656	1.38
340.027	1.59
340.398	1.53
340.769	1.47
341.141	1.6
341.512	1.62
341.883	1.43
342.254	1.52
342.625	1.57
342.996	1.46
343.367	1.46
343.738	1.4
344.108	1.4
344.479	1.5
344.85	1.32
345.221	1.62
345.591	1.42
345.962	1.5
346.333	1.43
346.703	1.33
347.074	1.32
347.444	1.3
347.815	1.33
348.185	1.27
348.556	1.31
348.926	1.32
349.296	1.45
349.666	1.39
350.037	1.31
350.407	1.24
350.777	1.27
351.147	1.47
351.517	1.42
351.887	1.4
352.257	1.39
352.627	1.26
352.997	1.26
353.367	1.44
353.737	1.37
354.106	1.41
354.476	1.25
354.846	1.44
355.216	1.43
355.585	1.53
355.955	1.37
356.324	1.37
356.694	1.39
357.063	1.42
357.433	1.31
357.802	1.41
358.171	1.4
358.541	1.34
358.91	1.36
359.279	1.42
359.648	1.33
360.017	1.34
360.387	1.44
360.756	1.3
361.125	1.38
361.494	1.36
361.863	1.32
362.231	1.37
362.6	1.34
362.969	1.32
363.338	1.35
363.707	1.34
364.075	1.38
364.444	1.26
364.813	1.33
365.181	1.27
365.55	1.34
365.918	1.37
366.287	1.43
366.655	1.31
367.024	1.38
367.392	1.42
367.76	1.3
368.128	1.33
368.497	1.3
368.865	1.29
369.233	1.33
369.601	1.37
369.969	1.35
370.337	1.43
370.705	1.34
371.073	1.35
371.441	1.37
371.809	1.37
372.177	1.31
372.544	1.35
372.912	1.38
373.28	1.34
373.647	1.44
374.015	1.44
374.383	1.45
374.75	1.56
375.118	1.4
375.485	1.45
375.853	1.47
376.22	1.37
376.587	1.38
376.955	1.5
377.322	1.42
377.689	1.41
378.056	1.36
378.423	1.33
378.79	1.47
379.157	1.51
379.524	1.4
379.891	1.46
380.258	1.65
380.625	1.39
380.992	1.4
381.359	1.54
381.726	1.64
382.092	1.45
382.459	1.5
382.826	1.41
383.192	1.39
383.559	1.44
383.925	1.61
384.292	1.39
384.658	1.45
385.025	1.44
385.391	1.6
385.757	1.55
386.123	1.54
386.49	1.38
386.856	1.47
387.222	1.7
387.588	1.45
387.954	1.57
388.32	1.56
388.686	1.62
389.052	1.53
389.418	1.44
389.784	1.48
390.15	1.41
390.515	1.34
390.881	1.97
391.247	1.39
391.613	1.59
391.978	1.49
392.344	1.59
392.709	1.5
393.075	1.48
393.44	1.51
393.806	1.51
394.171	1.6
394.536	1.56
394.902	1.54
395.267	1.48
395.632	1.52
395.997	1.58
396.362	1.48
396.727	1.55
397.092	1.46
397.457	1.57
397.822	1.48
398.187	1.61
398.552	1.51
398.917	1.55
399.282	1.38
399.646	1.56
400.011	1.67
400.376	1.36
400.74	1.37
401.105	1.61
401.47	1.5
401.834	1.42
402.199	1.41
402.563	1.55
402.927	1.35
403.292	1.52
403.656	1.38
404.02	1.52
404.384	1.5
404.749	1.39
405.113	1.46
405.477	1.52
405.841	1.45
406.205	1.38
406.569	1.34
406.933	1.36
407.296	1.35
407.66	1.34
408.024	1.3
408.388	1.43
408.752	1.33
409.115	1.26
409.479	1.51
409.842	1.37
410.206	1.3
410.569	1.25
410.933	1.37
411.296	1.27
411.66	1.32
412.023	1.25
412.386	1.3
412.749	1.24
413.113	1.27
413.476	1.21
413.839	1.28
414.202	1.22
414.565	1.2
414.928	1.19
415.291	1.22
415.654	1.16
416.017	1.29
416.38	1.21
416.742	1.12
417.105	1.15
417.468	1.16
417.83	1.21
418.193	1.3
418.556	1.16
418.918	1.14
419.281	1.22
419.643	1.3
420.005	1.21
420.368	1.17
420.73	1.15
421.092	1.23
421.455	1.24
421.817	1.11
422.179	1.21
422.541	1.2
422.903	1.23
423.265	1.17
423.627	1.13
423.989	1.13
424.351	1.14
424.713	1.13
425.075	1.15
425.436	1.15
425.798	1.13
426.16	1.18
426.521	1.2
426.883	1.15
427.245	1.13
427.606	1.15
427.967	1.09
428.329	1.13
428.69	1.13
429.052	1.1
429.413	1.11
429.774	1.13
430.135	1.08
430.497	1.1
430.858	1.09
431.219	1.11
431.58	1.04
431.941	1.09
432.302	1.04
432.663	1.07
433.024	1.11
433.384	1.1
433.745	1.09
434.106	1.09
434.467	1.06
434.827	1.1
435.188	1.1
435.548	1.11
435.909	1.07
436.269	1.1
436.63	1.06
436.99	1.05
437.351	0.99
437.711	1.07
438.071	1
438.431	1
438.792	1.02
439.152	1
439.512	1.02
439.872	1.03
440.232	1.03
440.592	0.99
440.952	0.99
441.312	0.96
441.671	0.96
442.031	0.95
442.391	0.95
442.751	0.98
443.11	0.96
443.47	0.93
443.83	0.95
444.189	0.92
444.549	0.92
444.908	0.93
445.267	0.94
445.627	0.9
445.986	0.88
446.345	0.87
446.705	0.9
447.064	0.9
447.423	0.91
447.782	0.88
448.141	0.86
448.5	0.87
448.859	0.86
449.218	0.86
449.577	0.86
449.936	0.86
450.295	0.86
450.653	0.86
451.012	0.84
451.371	0.84
451.729	0.86
452.088	0.83
452.447	0.83
452.805	0.82
453.163	0.82
453.522	0.81
453.88	0.8
454.239	0.79
454.597	0.77
454.955	0.78
455.313	0.78
455.671	0.77
456.029	0.75
456.388	0.75
456.746	0.73
457.104	0.73
457.461	0.72
457.819	0.72
458.177	0.71
458.535	0.7
458.893	0.71
459.25	0.7
459.608	0.68
459.966	0.67
460.323	0.66
460.681	0.64
461.038	0.64
461.396	0.64
461.753	0.62
462.111	0.63
462.468	0.61
462.825	0.61
463.182	0.6
463.54	0.6
463.897	0.58
464.254	0.58
464.611	0.58
464.968	0.57
465.325	0.57
465.682	0.56
466.039	0.55
466.395	0.54
466.752	0.55
467.109	0.54
467.466	0.53
467.822	0.51
468.179	0.5
468.535	0.5
468.892	0.5
469.248	0.49
469.605	0.48
469.961	0.48
470.318	0.49
470.674	0.48
471.03	0.47
471.386	0.46
471.743	0.46
472.099	0.45
472.455	0.44
472.811	0.44
473.167	0.43
473.523	0.43
473.879	0.42
474.235	0.41
474.59	0.4
474.946	0.4
475.302	0.4
475.657	0.38
476.013	0.39
476.369	0.38
476.724	0.38
477.08	0.38
477.435	0.37
477.791	0.36
478.146	0.37
478.501	0.36
478.857	0.35
479.212	0.35
479.567	0.34
479.922	0.33
480.277	0.32
480.632	0.32
480.987	0.33
481.342	0.32
481.697	0.31
482.052	0.31
482.407	0.3
482.762	0.3
483.116	0.3
483.471	0.29
483.826	0.29
484.18	0.29
484.535	0.28
484.89	0.28
485.244	0.28
485.598	0.28
485.953	0.27
486.307	0.27
486.661	0.27
487.016	0.26
487.37	0.26
487.724	0.26
488.078	0.25
488.432	0.25
488.786	0.25
489.14	0.25
489.494	0.24
489.848	0.24
490.202	0.23
490.556	0.24
490.91	0.23
491.263	0.23
491.617	0.23
491.971	0.23
492.324	0.22
492.678	0.23
493.031	0.23
493.385	0.22
493.738	0.22
494.091	0.22
494.445	0.22
494.798	0.22
495.151	0.21
495.504	0.22
495.857	0.21
496.21	0.21
496.564	0.2
496.916	0.21
497.269	0.2
497.622	0.21
497.975	0.2
498.328	0.21
498.681	0.2
499.033	0.2
499.386	0.2
499.739	0.2
500.091	0.2
500.444	0.19
500.796	0.19
501.149	0.19
501.501	0.2
501.854	0.19
502.206	0.19
502.558	0.19
502.91	0.19
503.263	0.18
503.615	0.18
503.967	0.18
504.319	0.18
504.671	0.18
505.023	0.18
505.375	0.18
505.726	0.18
506.078	0.18
506.43	0.18
506.782	0.17
507.133	0.18
507.485	0.18
507.837	0.18
508.188	0.18
508.54	0.18
508.891	0.18
509.243	0.17
509.594	0.18
509.945	0.17
510.296	0.17
510.648	0.17
510.999	0.17
511.35	0.17
511.701	0.17
512.052	0.17
512.403	0.17
512.754	0.17
513.105	0.17
513.456	0.17
513.807	0.17
514.157	0.18
514.508	0.17
514.859	0.16
515.209	0.17
515.56	0.17
515.91	0.16
516.261	0.17
516.611	0.16
516.962	0.16
517.312	0.17
517.662	0.17
518.013	0.16
518.363	0.16
518.713	0.17
519.063	0.17
519.413	0.16
519.763	0.16
520.113	0.16
520.463	0.17
520.813	0.17
521.163	0.17
521.512	0.17
521.862	0.17
522.212	0.17
522.562	0.17
522.911	0.16
523.261	0.16
523.61	0.17
523.96	0.16
524.309	0.17
524.658	0.17
525.008	0.16
525.357	0.16
525.706	0.17
526.056	0.16
526.405	0.16
526.754	0.17
527.103	0.16
527.452	0.16
527.801	0.17
528.15	0.17
528.499	0.17
528.847	0.17
529.196	0.17
529.545	0.16
529.893	0.17
530.242	0.17
530.591	0.18
530.939	0.18
531.288	0.17
531.636	0.18
531.985	0.18
532.333	0.17
532.681	0.18
533.029	0.17
533.378	0.18
533.726	0.17
534.074	0.18
534.422	0.17
534.77	0.18
535.118	0.18
535.466	0.17
535.814	0.17
536.162	0.18
536.509	0.18
536.857	0.18
537.205	0.19
537.552	0.18
537.9	0.17
538.248	0.17
538.595	0.18
538.943	0.18
539.29	0.17
539.637	0.18
539.985	0.18
540.332	0.18
540.679	0.17
541.026	0.17
541.373	0.18
541.721	0.17
542.068	0.17
542.415	0.17
542.762	0.17
543.108	0.17
543.455	0.16
543.802	0.16
544.149	0.17
544.496	0.17
544.842	0.16
545.189	0.17
545.535	0.16
545.882	0.17
546.228	0.16
546.575	0.16
546.921	0.17
547.267	0.16
547.614	0.17
547.96	0.16
548.306	0.17
548.652	0.16
548.998	0.17
549.344	0.17
549.69	0.17
550.036	0.16
550.382	0.18
550.728	0.16
551.074	0.17
551.42	0.17
551.765	0.17
552.111	0.17
552.457	0.18
552.802	0.17
553.148	0.17
553.493	0.17
553.839	0.18
554.184	0.18
554.529	0.18
554.875	0.17
555.22	0.17
555.565	0.18
555.91	0.17
556.255	0.18
556.6	0.18
556.945	0.18
557.29	0.18
557.635	0.19
557.98	0.18
558.325	0.17
558.67	0.18
559.014	0.18
559.359	0.18
559.704	0.18
560.048	0.17
560.393	0.17
560.737	0.16
561.082	0.18
561.426	0.17
561.77	0.17
562.115	0.17
562.459	0.17
562.803	0.16
563.147	0.17
563.491	0.18
563.835	0.18
564.179	0.17
564.523	0.18
564.867	0.17
565.211	0.17
565.555	0.17
565.899	0.18
566.242	0.18
566.586	0.17
566.93	0.18
567.273	0.18
567.617	0.19
567.96	0.18
568.304	0.18
568.647	0.17
568.99	0.17
569.334	0.19
569.677	0.18
570.02	0.18
570.363	0.18
570.706	0.18
571.049	0.18
571.392	0.18
571.735	0.17
572.078	0.17
572.421	0.18
572.764	0.18
573.106	0.17
573.449	0.17
573.792	0.17
574.134	0.17
574.477	0.18
574.819	0.18
575.162	0.18
575.504	0.18
575.847	0.17
576.189	0.17
576.531	0.17
576.873	0.18
577.215	0.17
577.558	0.18
577.9	0.18
578.242	0.18
578.584	0.18
578.926	0.18
579.267	0.17
579.609	0.18
579.951	0.17
580.293	0.18
580.634	0.18
580.976	0.18
581.318	0.18
581.659	0.17
582.001	0.18
582.342	0.17
582.683	0.19
583.025	0.17
583.366	0.17
583.707	0.17
584.049	0.17
584.39	0.17
584.731	0.17
585.072	0.17
585.413	0.18
585.754	0.18
586.095	0.18
586.435	0.17
586.776	0.18
587.117	0.18
587.458	0.17
587.798	0.17
588.139	0.17
588.48	0.18
588.82	0.17
589.161	0.17
589.501	0.17
589.841	0.17
590.182	0.17
590.522	0.17
590.862	0.17
591.202	0.17
591.542	0.17
591.882	0.17
592.222	0.17
592.562	0.18
592.902	0.17
593.242	0.17
593.582	0.17
593.922	0.17
594.261	0.17
594.601	0.17
594.941	0.17
595.28	0.18
595.62	0.17
595.959	0.16
596.299	0.17
596.638	0.17
596.977	0.17
597.317	0.17
597.656	0.17
597.995	0.17
598.334	0.17
598.673	0.17
599.012	0.17
599.351	0.17
599.69	0.17
600.029	0.17
600.368	0.16
600.707	0.17
601.046	0.17
601.384	0.17
601.723	0.17
602.061	0.17
602.4	0.18
602.738	0.17
603.077	0.17
603.415	0.16
603.754	0.17
604.092	0.17
604.43	0.17
604.768	0.17
605.107	0.18
605.445	0.17
605.783	0.17
606.121	0.17
606.459	0.17
606.796	0.17
607.134	0.17
607.472	0.16
607.81	0.17
608.148	0.16
608.485	0.17
608.823	0.17
609.16	0.16
609.498	0.17
609.835	0.17
610.173	0.16
610.51	0.17
610.847	0.17
611.185	0.17
611.522	0.18
611.859	0.17
612.196	0.17
612.533	0.18
612.87	0.18
613.207	0.18
613.544	0.17
613.881	0.18
614.217	0.17
614.554	0.17
614.891	0.17
615.228	0.18
615.564	0.17
615.901	0.18
616.237	0.17
616.574	0.17
616.91	0.18
617.246	0.17
617.583	0.18
617.919	0.18
618.255	0.18
618.591	0.18
618.927	0.18
619.263	0.18
619.599	0.18
619.935	0.18
620.271	0.18
620.607	0.17
620.943	0.18
621.279	0.18
621.614	0.17
621.95	0.18
622.286	0.17
622.621	0.17
622.957	0.17
623.292	0.16
623.627	0.16
623.963	0.16
624.298	0.16
624.633	0.16
624.968	0.16
625.304	0.16
625.639	0.16
625.974	0.16
626.309	0.16
626.644	0.16
626.979	0.17
627.313	0.16
627.648	0.16
627.983	0.16
628.318	0.15
628.652	0.16
628.987	0.15
629.321	0.15
629.656	0.15
629.99	0.16
630.325	0.15
630.659	0.15
630.993	0.15
631.327	0.16
631.662	0.15
631.996	0.15
632.33	0.15
632.664	0.15
632.998	0.16
633.332	0.15
633.666	0.15
633.999	0.16
634.333	0.14
634.667	0.15
635.001	0.15
635.334	0.15
635.668	0.15
636.001	0.15
636.335	0.15
636.668	0.15
637.001	0.14
637.335	0.15
637.668	0.15
638.001	0.15
638.334	0.15
638.668	0.14
639.001	0.15
639.334	0.14
639.667	0.14
639.999	0.14
640.332	0.14
640.665	0.13
640.998	0.13
641.331	0.14
641.663	0.13
641.996	0.14
642.328	0.14
642.661	0.14
642.993	0.14
643.326	0.14
643.658	0.13
643.99	0.13
644.323	0.13
644.655	0.13
644.987	0.14
645.319	0.14
645.651	0.14
645.983	0.14
646.315	0.13
646.647	0.14
646.979	0.14
647.31	0.15
647.642	0.14
647.974	0.14
648.305	0.14
648.637	0.14
648.968	0.14
649.3	0.14
649.631	0.15
649.963	0.15
650.294	0.15
650.625	0.14
650.957	0.15
651.288	0.15
651.619	0.15
651.95	0.15
652.281	0.15
652.612	0.14
652.943	0.15
653.274	0.15
653.604	0.14
653.935	0.14
654.266	0.15
654.596	0.14
654.927	0.14
655.258	0.15
655.588	0.15
655.918	0.15
656.249	0.12
656.579	0.14
656.909	0.14
657.24	0.14
657.57	0.15
657.9	0.15
658.23	0.14
658.56	0.15
658.89	0.15
659.22	0.14
659.55	0.15
659.88	0.14
660.209	0.14
660.539	0.15
660.869	0.15
661.198	0.15
661.528	0.15
661.857	0.15
662.187	0.15
662.516	0.15
662.846	0.14
663.175	0.14
663.504	0.14
663.833	0.14
664.163	0.14
664.492	0.14
664.821	0.14
665.15	0.14
665.479	0.13
665.807	0.13
666.136	0.13
666.465	0.13
666.794	0.13
667.122	0.13
667.451	0.13
667.78	0.13
668.108	0.13
668.437	0.13
668.765	0.13
669.093	0.13
669.422	0.13
669.75	0.13
670.078	0.13
670.406	0.13
670.734	0.14
671.062	0.14
671.39	0.13
671.718	0.13
672.046	0.13
672.374	0.13
672.702	0.13
673.029	0.13
673.357	0.13
673.685	0.13
674.012	0.13
674.34	0.13
674.667	0.13
674.995	0.13
675.322	0.14
675.649	0.13
675.977	0.13
676.304	0.13
676.631	0.13
676.958	0.13
677.285	0.12
677.612	0.12
677.939	0.13
678.266	0.13
678.593	0.13
678.92	0.12
679.246	0.12
679.573	0.13
679.9	0.12
680.226	0.12
680.553	0.12
680.879	0.12
681.206	0.12
681.532	0.12
681.858	0.11
682.184	0.12
682.511	0.12
682.837	0.11
683.163	0.12
683.489	0.11
683.815	0.11
684.141	0.12
684.467	0.11
684.793	0.11
685.118	0.12
685.444	0.11
685.77	0.11
686.095	0.11
686.421	0.12
686.746	0.12
687.072	0.12
687.397	0.11
687.723	0.12
688.048	0.12
688.373	0.12
688.698	0.12
689.023	0.12
689.349	0.12
689.674	0.12
689.999	0.11
690.323	0.11
690.648	0.11
690.973	0.11
691.298	0.12
691.623	0.11
691.947	0.11
692.272	0.1
692.596	0.11
692.921	0.11
693.245	0.11
693.57	0.1
693.894	0.12
694.218	0.11
694.543	0.11
694.867	0.1
695.191	0.11
695.515	0.11
695.839	0.1
696.163	0.11
696.487	0.11
696.811	0.1
697.135	0.11
697.458	0.11
697.782	0.11
698.106	0.1
698.429	0.11
698.753	0.1
699.076	0.11
699.4	0.11
699.723	0.1
700.046	0.09
700.37	0.11
700.693	0.11
701.016	0.1
701.339	0.1
701.662	0.11
701.985	0.1
702.308	0.1
702.631	0.11
702.954	0.1
703.277	0.1
703.599	0.11
703.922	0.1
704.245	0.09
704.567	0.09
704.89	0.09
705.212	0.1
705.535	0.09
705.857	0.1
706.179	0.09
706.502	0.09
706.824	0.09
707.146	0.09
707.468	0.09
707.79	0.1
708.112	0.09
708.434	0.1
708.756	0.1
709.078	0.11
709.399	0.1
709.721	0.1
710.043	0.1
710.364	0.09
710.686	0.09
711.007	0.1
711.329	0.1
711.65	0.09
711.972	0.1
712.293	0.1
712.614	0.09
712.935	0.1
713.256	0.09
713.577	0.1
713.898	0.09
714.219	0.09
714.54	0.09
714.861	0.08
715.182	0.09
715.503	0.09
715.823	0.09
716.144	0.08
716.464	0.08
716.785	0.09
717.105	0.08
717.426	0.1
717.746	0.08
718.066	0.08
718.387	0.08
718.707	0.08
719.027	0.08
719.347	0.08
719.667	0.08
719.987	0.07
720.307	0.07
720.627	0.08
720.947	0.08
721.266	0.07
721.586	0.07
721.906	0.07
722.225	0.07
722.545	0.07
722.864	0.07
723.184	0.08
723.503	0.07
723.823	0.08
724.142	0.07
724.461	0.07
