Data from 12-12-AQDScycling_Absorbance__879__00879.txt Node

Date: Tue Dec 12 14:36:29 EST 2023
User: kyuminlee
Spectrometer: FLMS00943
Trigger mode: 0
Integration Time (sec): 1.000000E-1
Scans to average: 1
Electric dark correction enabled: true
Nonlinearity correction enabled: false
Boxcar width: 0
XAxis mode: Wavelengths
Number of Pixels in Spectrum: 2048
>>>>>Begin Spectral Data<<<<<
179.651	-0
180.037	-0
180.424	-0
180.81	-0.56
181.197	0.22
181.583	-0
181.97	1.08
182.356	-0
182.743	-0
183.129	0.22
183.515	0.78
183.901	-2.53
184.288	1.03
184.674	-0.12
185.06	-0
185.446	-0
185.832	-0
186.218	0.22
186.604	-0
186.99	-0
187.376	-0
187.762	-0
188.148	0.34
188.534	-0.18
188.92	0.11
189.305	0.15
189.691	0.1
190.077	0.12
190.463	0.22
190.848	0.04
191.234	0.12
191.619	0.08
192.005	0.08
192.391	0.24
192.776	0.17
193.161	0.26
193.547	0.17
193.932	-0.06
194.318	0.05
194.703	0.04
195.088	0.06
195.473	0.17
195.859	0.22
196.244	0.13
196.629	0.11
197.014	0.04
197.399	0.04
197.784	0.33
198.169	0.24
198.554	0.16
198.939	0.13
199.324	0.08
199.709	0.06
200.094	0.12
200.478	0.18
200.863	0.13
201.248	0.18
201.633	0.03
202.017	0.27
202.402	0.13
202.787	0.07
203.171	0.2
203.556	0.18
203.94	0.18
204.325	0.21
204.709	0.43
205.093	0.12
205.478	0.03
205.862	0.17
206.246	0.19
206.631	0.02
207.015	0.05
207.399	0.28
207.783	0.21
208.167	0.3
208.551	0.21
208.935	0.38
209.319	0.21
209.703	0.06
210.087	0.21
210.471	0.11
210.855	0.19
211.239	0.26
211.623	0.27
212.007	0.26
212.39	0.54
212.774	0.24
213.158	0.1
213.541	0.26
213.925	0.14
214.309	0.51
214.692	0.37
215.076	0.29
215.459	0.15
215.842	0.16
216.226	0.4
216.609	0.23
216.993	0.14
217.376	0.52
217.759	0.19
218.142	0.24
218.525	0.5
218.909	0.41
219.292	0.43
219.675	0.6
220.058	0.41
220.441	0.5
220.824	0.59
221.207	0.6
221.59	0.49
221.973	0.5
222.355	0.6
222.738	0.76
223.121	0.69
223.504	0.62
223.886	0.78
224.269	0.67
224.652	0.64
225.034	0.8
225.417	0.68
225.799	0.82
226.182	0.97
226.564	0.82
226.947	0.72
227.329	0.77
227.711	1.12
228.094	0.99
228.476	1
228.858	0.75
229.24	0.9
229.623	0.94
230.005	0.87
230.387	1
230.769	0.95
231.151	1.2
231.533	0.95
231.915	0.95
232.297	1.04
232.679	0.94
233.061	0.97
233.442	0.96
233.824	1.06
234.206	1.07
234.588	1.1
234.969	0.97
235.351	0.97
235.733	1.01
236.114	1.34
236.496	1.08
236.877	1.11
237.259	1.1
237.64	1.11
238.022	1
238.403	1.01
238.784	0.99
239.165	0.97
239.547	1.14
239.928	1.09
240.309	1.1
240.69	1.01
241.071	1.03
241.452	1.1
241.834	1.16
242.215	1.17
242.595	1.03
242.976	1.06
243.357	1.07
243.738	0.98
244.119	1.19
244.5	1.15
244.881	1.31
245.261	1.11
245.642	1.14
246.023	1.2
246.403	1.12
246.784	1.24
247.164	1.21
247.545	1.26
247.925	1.28
248.306	1.27
248.686	1.36
249.067	1.35
249.447	1.35
249.827	1.56
250.207	1.42
250.588	1.25
250.968	1.45
251.348	1.38
251.728	1.35
252.108	1.36
252.488	1.45
252.868	1.3
253.248	1.32
253.628	1.26
254.008	1.43
254.388	1.35
254.768	1.33
255.147	1.42
255.527	1.36
255.907	1.33
256.287	1.27
256.666	1.54
257.046	1.42
257.425	1.38
257.805	1.38
258.184	1.36
258.564	1.5
258.943	1.44
259.323	1.44
259.702	1.53
260.081	1.45
260.461	1.51
260.84	1.52
261.219	1.67
261.598	1.4
261.977	1.45
262.356	1.49
262.736	1.45
263.115	1.46
263.494	1.46
263.873	1.38
264.251	1.4
264.63	1.57
265.009	1.36
265.388	1.42
265.767	1.42
266.145	1.37
266.524	1.39
266.903	1.44
267.281	1.48
267.66	1.56
268.039	1.51
268.417	1.41
268.796	1.67
269.174	1.46
269.552	1.37
269.931	1.49
270.309	1.45
270.687	1.54
271.066	1.58
271.444	1.38
271.822	1.46
272.2	1.4
272.578	1.47
272.956	1.52
273.334	1.41
273.712	1.55
274.09	1.77
274.468	1.45
274.846	1.34
275.224	1.36
275.602	1.47
275.98	1.45
276.357	1.43
276.735	1.34
277.113	1.39
277.49	1.36
277.868	1.3
278.246	1.42
278.623	1.33
279.001	1.43
279.378	1.36
279.756	1.5
280.133	1.86
280.51	1.44
280.888	1.53
281.265	1.31
281.642	1.37
282.019	1.66
282.396	1.57
282.773	1.43
283.151	1.53
283.528	1.57
283.905	1.42
284.282	1.54
284.659	1.5
285.035	1.31
285.412	1.4
285.789	1.38
286.166	1.64
286.543	1.56
286.919	1.4
287.296	1.49
287.673	1.6
288.049	1.43
288.426	1.58
288.802	1.58
289.179	1.64
289.555	1.77
289.932	1.67
290.308	1.37
290.684	1.5
291.061	1.43
291.437	1.66
291.813	1.42
292.189	1.31
292.565	1.28
292.942	1.31
293.318	1.4
293.694	1.45
294.07	1.34
294.446	1.36
294.822	1.65
295.197	1.42
295.573	1.46
295.949	1.54
296.325	1.49
296.701	1.48
297.076	1.54
297.452	1.41
297.828	1.43
298.203	1.48
298.579	1.41
298.954	1.5
299.33	1.42
299.705	1.45
300.081	1.41
300.456	1.39
300.831	1.37
301.206	1.31
301.582	1.4
301.957	1.36
302.332	1.36
302.707	1.25
303.082	1.34
303.457	1.32
303.832	1.31
304.207	1.39
304.582	1.3
304.957	1.26
305.332	1.31
305.707	1.33
306.082	1.28
306.456	1.27
306.831	1.23
307.206	1.22
307.58	1.24
307.955	1.17
308.33	1.21
308.704	1.24
309.079	1.2
309.453	1.23
309.828	1.18
310.202	1.12
310.576	1.18
310.951	1.13
311.325	1.19
311.699	1.15
312.073	1.07
312.447	1.09
312.821	1.12
313.196	1.14
313.57	1.08
313.944	1.07
314.317	1.04
314.691	1.16
315.065	1.11
315.439	1.14
315.813	1.12
316.187	1.06
316.56	1.15
316.934	1.12
317.308	1.04
317.681	1.11
318.055	1.04
318.428	1.09
318.802	1.07
319.175	1.1
319.549	1.09
319.922	1.02
320.295	1.05
320.669	1.12
321.042	1.11
321.415	1.12
321.788	1.08
322.162	1.08
322.535	1.03
322.908	1.14
323.281	1.1
323.654	1.1
324.027	1.1
324.4	1.13
324.773	1.13
325.145	1.1
325.518	1.06
325.891	1.1
326.264	1.17
326.636	1.12
327.009	1.07
327.382	1.13
327.754	1.15
328.127	1.05
328.499	1.12
328.872	1.11
329.244	1.1
329.616	1.1
329.989	1.1
330.361	1.14
330.733	1.14
331.106	1.11
331.478	1.17
331.85	1.15
332.222	1.07
332.594	1.11
332.966	1.1
333.338	1.17
333.71	1.2
334.082	1.17
334.454	1.11
334.826	1.13
335.197	1.17
335.569	1.18
335.941	1.15
336.312	1.18
336.684	1.16
337.056	1.21
337.427	1.27
337.799	1.25
338.17	1.27
338.542	1.22
338.913	1.27
339.284	1.29
339.656	1.15
340.027	1.21
340.398	1.36
340.769	1.25
341.141	1.32
341.512	1.27
341.883	1.29
342.254	1.24
342.625	1.28
342.996	1.3
343.367	1.28
343.738	1.26
344.108	1.19
344.479	1.22
344.85	1.25
345.221	1.41
345.591	1.26
345.962	1.29
346.333	1.28
346.703	1.25
347.074	1.26
347.444	1.16
347.815	1.32
348.185	1.22
348.556	1.33
348.926	1.24
349.296	1.21
349.666	1.22
350.037	1.21
350.407	1.19
350.777	1.25
351.147	1.24
351.517	1.28
351.887	1.33
352.257	1.34
352.627	1.32
352.997	1.3
353.367	1.43
353.737	1.38
354.106	1.38
354.476	1.26
354.846	1.39
355.216	1.35
355.585	1.43
355.955	1.42
356.324	1.41
356.694	1.36
357.063	1.41
357.433	1.36
357.802	1.5
358.171	1.56
358.541	1.38
358.91	1.35
359.279	1.46
359.648	1.38
360.017	1.55
360.387	1.54
360.756	1.44
361.125	1.64
361.494	1.56
361.863	1.53
362.231	1.57
362.6	1.64
362.969	1.51
363.338	1.47
363.707	1.74
364.075	1.53
364.444	1.39
364.813	1.52
365.181	1.45
365.55	1.5
365.918	1.63
366.287	1.51
366.655	1.53
367.024	1.51
367.392	1.51
367.76	1.54
368.128	1.59
368.497	1.47
368.865	1.63
369.233	1.52
369.601	1.57
369.969	1.41
370.337	1.54
370.705	1.5
371.073	1.51
371.441	1.53
371.809	1.45
372.177	1.43
372.544	1.59
372.912	1.52
373.28	1.5
373.647	1.54
374.015	1.76
374.383	1.58
374.75	1.78
375.118	1.51
375.485	1.6
375.853	1.56
376.22	1.59
376.587	1.45
376.955	1.72
377.322	1.67
377.689	1.49
378.056	1.54
378.423	1.51
378.79	1.6
379.157	1.47
379.524	1.57
379.891	1.4
380.258	1.65
380.625	1.46
380.992	1.56
381.359	1.62
381.726	1.64
382.092	1.49
382.459	1.48
382.826	1.47
383.192	1.59
383.559	1.46
383.925	1.58
384.292	1.54
384.658	1.71
385.025	1.65
385.391	1.8
385.757	1.56
386.123	1.53
386.49	1.57
386.856	1.61
387.222	1.66
387.588	1.62
387.954	1.77
388.32	1.9
388.686	1.73
389.052	1.45
389.418	1.64
389.784	1.48
390.15	1.71
390.515	1.41
390.881	1.76
391.247	1.46
391.613	1.64
391.978	1.44
392.344	1.71
392.709	1.53
393.075	1.69
393.44	1.59
393.806	1.54
394.171	1.52
394.536	1.47
394.902	1.68
395.267	1.64
395.632	1.48
395.997	1.53
396.362	1.48
396.727	1.58
397.092	1.6
397.457	1.66
397.822	1.59
398.187	1.54
398.552	1.6
398.917	1.77
399.282	1.41
399.646	1.62
400.011	1.9
400.376	1.45
400.74	1.52
401.105	1.48
401.47	1.67
401.834	1.63
402.199	1.48
402.563	1.61
402.927	1.48
403.292	1.66
403.656	1.59
404.02	1.56
404.384	1.7
404.749	1.63
405.113	1.61
405.477	1.66
405.841	1.63
406.205	1.53
406.569	1.54
406.933	1.53
407.296	1.56
407.66	1.5
408.024	1.56
408.388	1.67
408.752	1.76
409.115	1.67
409.479	1.64
409.842	1.66
410.206	1.48
410.569	1.5
410.933	1.52
411.296	1.38
411.66	1.67
412.023	1.41
412.386	1.61
412.749	1.39
413.113	1.44
413.476	1.43
413.839	1.51
414.202	1.47
414.565	1.32
414.928	1.45
415.291	1.39
415.654	1.52
416.017	1.46
416.38	1.4
416.742	1.49
417.105	1.42
417.468	1.37
417.83	1.53
418.193	1.71
418.556	1.51
418.918	1.42
419.281	1.49
419.643	1.49
420.005	1.48
420.368	1.43
420.73	1.42
421.092	1.5
421.455	1.6
421.817	1.31
422.179	1.4
422.541	1.47
422.903	1.6
423.265	1.51
423.627	1.6
423.989	1.5
424.351	1.38
424.713	1.4
425.075	1.4
425.436	1.48
425.798	1.41
426.16	1.5
426.521	1.58
426.883	1.49
427.245	1.55
427.606	1.46
427.967	1.44
428.329	1.45
428.69	1.53
429.052	1.36
429.413	1.45
429.774	1.54
430.135	1.42
430.497	1.54
430.858	1.46
431.219	1.48
431.58	1.51
431.941	1.41
432.302	1.45
432.663	1.5
433.024	1.6
433.384	1.47
433.745	1.44
434.106	1.49
434.467	1.45
434.827	1.38
435.188	1.46
435.548	1.49
435.909	1.45
436.269	1.49
436.63	1.34
436.99	1.51
437.351	1.35
437.711	1.39
438.071	1.31
438.431	1.36
438.792	1.32
439.152	1.33
439.512	1.41
439.872	1.31
440.232	1.48
440.592	1.43
440.952	1.35
441.312	1.31
441.671	1.31
442.031	1.4
442.391	1.34
442.751	1.36
443.11	1.34
443.47	1.25
443.83	1.29
444.189	1.22
444.549	1.34
444.908	1.25
445.267	1.31
445.627	1.29
445.986	1.24
446.345	1.18
446.705	1.25
447.064	1.22
447.423	1.27
447.782	1.22
448.141	1.24
448.5	1.19
448.859	1.2
449.218	1.18
449.577	1.2
449.936	1.15
450.295	1.19
450.653	1.18
451.012	1.15
451.371	1.16
451.729	1.14
452.088	1.14
452.447	1.16
452.805	1.13
453.163	1.12
453.522	1.13
453.88	1.1
454.239	1.13
454.597	1.08
454.955	1.08
455.313	1.06
455.671	1.06
456.029	1.06
456.388	1.04
456.746	1.02
457.104	1
457.461	0.99
457.819	1
458.177	0.98
458.535	0.98
458.893	0.96
459.25	0.95
459.608	0.95
459.966	0.92
460.323	0.92
460.681	0.88
461.038	0.91
461.396	0.87
461.753	0.86
462.111	0.85
462.468	0.84
462.825	0.82
463.182	0.81
463.54	0.79
463.897	0.8
464.254	0.79
464.611	0.77
464.968	0.76
465.325	0.75
465.682	0.75
466.039	0.72
466.395	0.71
466.752	0.71
467.109	0.69
467.466	0.7
467.822	0.7
468.179	0.68
468.535	0.65
468.892	0.66
469.248	0.64
469.605	0.63
469.961	0.62
470.318	0.63
470.674	0.6
471.03	0.6
471.386	0.59
471.743	0.58
472.099	0.56
472.455	0.57
472.811	0.54
473.167	0.55
473.523	0.53
473.879	0.54
474.235	0.54
474.59	0.51
474.946	0.51
475.302	0.5
475.657	0.48
476.013	0.48
476.369	0.47
476.724	0.47
477.08	0.46
477.435	0.45
477.791	0.45
478.146	0.44
478.501	0.43
478.857	0.42
479.212	0.41
479.567	0.41
479.922	0.4
480.277	0.39
480.632	0.38
480.987	0.38
481.342	0.37
481.697	0.36
482.052	0.36
482.407	0.35
482.762	0.35
483.116	0.34
483.471	0.34
483.826	0.33
484.18	0.32
484.535	0.32
484.89	0.32
485.244	0.32
485.598	0.31
485.953	0.3
486.307	0.3
486.661	0.3
487.016	0.29
487.37	0.29
487.724	0.28
488.078	0.28
488.432	0.27
488.786	0.27
489.14	0.26
489.494	0.25
489.848	0.25
490.202	0.25
490.556	0.24
490.91	0.24
491.263	0.23
491.617	0.24
491.971	0.23
492.324	0.23
492.678	0.23
493.031	0.23
493.385	0.23
493.738	0.22
494.091	0.22
494.445	0.21
494.798	0.21
495.151	0.2
495.504	0.21
495.857	0.2
496.21	0.21
496.564	0.2
496.916	0.21
497.269	0.19
497.622	0.2
497.975	0.19
498.328	0.19
498.681	0.19
499.033	0.18
499.386	0.18
499.739	0.18
500.091	0.17
500.444	0.18
500.796	0.17
501.149	0.17
501.501	0.16
501.854	0.17
502.206	0.17
502.558	0.16
502.91	0.17
503.263	0.16
503.615	0.16
503.967	0.16
504.319	0.17
504.671	0.16
505.023	0.15
505.375	0.16
505.726	0.16
506.078	0.16
506.43	0.15
506.782	0.15
507.133	0.15
507.485	0.16
507.837	0.16
508.188	0.16
508.54	0.15
508.891	0.15
509.243	0.15
509.594	0.15
509.945	0.14
510.296	0.15
510.648	0.15
510.999	0.15
511.35	0.14
511.701	0.14
512.052	0.15
512.403	0.15
512.754	0.14
513.105	0.14
513.456	0.14
513.807	0.14
514.157	0.15
514.508	0.14
514.859	0.14
515.209	0.13
515.56	0.14
515.91	0.14
516.261	0.14
516.611	0.13
516.962	0.14
517.312	0.14
517.662	0.14
518.013	0.14
518.363	0.15
518.713	0.14
519.063	0.14
519.413	0.15
519.763	0.14
520.113	0.14
520.463	0.15
520.813	0.15
521.163	0.15
521.512	0.14
521.862	0.14
522.212	0.14
522.562	0.14
522.911	0.14
523.261	0.14
523.61	0.15
523.96	0.14
524.309	0.15
524.658	0.14
525.008	0.15
525.357	0.14
525.706	0.14
526.056	0.14
526.405	0.14
526.754	0.14
527.103	0.13
527.452	0.14
527.801	0.15
528.15	0.14
528.499	0.14
528.847	0.14
529.196	0.14
529.545	0.15
529.893	0.15
530.242	0.14
530.591	0.15
530.939	0.15
531.288	0.15
531.636	0.15
531.985	0.15
532.333	0.15
532.681	0.15
533.029	0.15
533.378	0.15
533.726	0.14
534.074	0.15
534.422	0.14
534.77	0.15
535.118	0.15
535.466	0.14
535.814	0.14
536.162	0.15
536.509	0.15
536.857	0.14
537.205	0.15
537.552	0.15
537.9	0.15
538.248	0.15
538.595	0.16
538.943	0.16
539.29	0.14
539.637	0.15
539.985	0.15
540.332	0.14
540.679	0.14
541.026	0.14
541.373	0.15
541.721	0.14
542.068	0.15
542.415	0.15
542.762	0.14
543.108	0.14
543.455	0.15
543.802	0.15
544.149	0.14
544.496	0.15
544.842	0.15
545.189	0.13
545.535	0.15
545.882	0.14
546.228	0.14
546.575	0.14
546.921	0.13
547.267	0.12
547.614	0.13
547.96	0.14
548.306	0.14
548.652	0.13
548.998	0.14
549.344	0.14
549.69	0.14
550.036	0.13
550.382	0.14
550.728	0.14
551.074	0.14
551.42	0.14
551.765	0.14
552.111	0.14
552.457	0.15
552.802	0.15
553.148	0.14
553.493	0.14
553.839	0.14
554.184	0.14
554.529	0.14
554.875	0.15
555.22	0.15
555.565	0.15
555.91	0.15
556.255	0.15
556.6	0.15
556.945	0.14
557.29	0.14
557.635	0.15
557.98	0.14
558.325	0.15
558.67	0.14
559.014	0.15
559.359	0.14
559.704	0.14
560.048	0.14
560.393	0.14
560.737	0.12
561.082	0.14
561.426	0.14
561.77	0.14
562.115	0.14
562.459	0.14
562.803	0.14
563.147	0.14
563.491	0.14
563.835	0.15
564.179	0.14
564.523	0.14
564.867	0.14
565.211	0.14
565.555	0.15
565.899	0.14
566.242	0.14
566.586	0.14
566.93	0.14
567.273	0.14
567.617	0.15
567.96	0.15
568.304	0.15
568.647	0.15
568.99	0.15
569.334	0.15
569.677	0.15
570.02	0.15
570.363	0.15
570.706	0.15
571.049	0.16
571.392	0.15
571.735	0.16
572.078	0.15
572.421	0.15
572.764	0.15
573.106	0.15
573.449	0.15
573.792	0.14
574.134	0.15
574.477	0.15
574.819	0.14
575.162	0.14
575.504	0.14
575.847	0.14
576.189	0.15
576.531	0.14
576.873	0.14
577.215	0.14
577.558	0.15
577.9	0.14
578.242	0.14
578.584	0.14
578.926	0.14
579.267	0.14
579.609	0.14
579.951	0.15
580.293	0.14
580.634	0.14
580.976	0.14
581.318	0.15
581.659	0.14
582.001	0.15
582.342	0.14
582.683	0.15
583.025	0.14
583.366	0.15
583.707	0.15
584.049	0.14
584.39	0.14
584.731	0.14
585.072	0.14
585.413	0.15
585.754	0.15
586.095	0.15
586.435	0.14
586.776	0.15
587.117	0.14
587.458	0.15
587.798	0.14
588.139	0.15
588.48	0.14
588.82	0.14
589.161	0.13
589.501	0.13
589.841	0.14
590.182	0.14
590.522	0.14
590.862	0.14
591.202	0.14
591.542	0.13
591.882	0.15
592.222	0.14
592.562	0.14
592.902	0.14
593.242	0.14
593.582	0.15
593.922	0.13
594.261	0.13
594.601	0.14
594.941	0.14
595.28	0.14
595.62	0.14
595.959	0.14
596.299	0.14
596.638	0.14
596.977	0.14
597.317	0.14
597.656	0.14
597.995	0.14
598.334	0.15
598.673	0.15
599.012	0.14
599.351	0.16
599.69	0.15
600.029	0.15
600.368	0.15
600.707	0.15
601.046	0.15
601.384	0.15
601.723	0.15
602.061	0.14
602.4	0.15
602.738	0.15
603.077	0.14
603.415	0.13
603.754	0.14
604.092	0.14
604.43	0.14
604.768	0.14
605.107	0.15
605.445	0.14
605.783	0.14
606.121	0.14
606.459	0.14
606.796	0.14
607.134	0.14
607.472	0.14
607.81	0.14
608.148	0.13
608.485	0.14
608.823	0.15
609.16	0.13
609.498	0.14
609.835	0.14
610.173	0.13
610.51	0.14
610.847	0.14
611.185	0.14
611.522	0.14
611.859	0.15
612.196	0.14
612.533	0.14
612.87	0.15
613.207	0.15
613.544	0.15
613.881	0.15
614.217	0.14
614.554	0.14
614.891	0.14
615.228	0.14
615.564	0.14
615.901	0.14
616.237	0.15
616.574	0.14
616.91	0.15
617.246	0.15
617.583	0.15
617.919	0.15
618.255	0.15
618.591	0.15
618.927	0.14
619.263	0.15
619.599	0.15
619.935	0.15
620.271	0.15
620.607	0.14
620.943	0.14
621.279	0.15
621.614	0.15
621.95	0.14
622.286	0.14
622.621	0.14
622.957	0.14
623.292	0.14
623.627	0.14
623.963	0.14
624.298	0.14
624.633	0.13
624.968	0.14
625.304	0.14
625.639	0.14
625.974	0.13
626.309	0.14
626.644	0.13
626.979	0.15
627.313	0.14
627.648	0.14
627.983	0.14
628.318	0.13
628.652	0.13
628.987	0.14
629.321	0.13
629.656	0.13
629.99	0.12
630.325	0.13
630.659	0.13
630.993	0.13
631.327	0.13
631.662	0.12
631.996	0.12
632.33	0.12
632.664	0.13
632.998	0.12
633.332	0.12
633.666	0.12
633.999	0.12
634.333	0.12
634.667	0.12
635.001	0.12
635.334	0.12
635.668	0.11
636.001	0.11
636.335	0.12
636.668	0.12
637.001	0.11
637.335	0.12
637.668	0.11
638.001	0.12
638.334	0.12
638.668	0.11
639.001	0.11
639.334	0.11
639.667	0.11
639.999	0.12
640.332	0.12
640.665	0.11
640.998	0.12
641.331	0.11
641.663	0.12
641.996	0.12
642.328	0.12
642.661	0.13
642.993	0.12
643.326	0.12
643.658	0.13
643.99	0.12
644.323	0.12
644.655	0.12
644.987	0.12
645.319	0.13
645.651	0.13
645.983	0.12
646.315	0.12
646.647	0.13
646.979	0.13
647.31	0.13
647.642	0.13
647.974	0.12
648.305	0.13
648.637	0.13
648.968	0.12
649.3	0.13
649.631	0.12
649.963	0.12
650.294	0.13
650.625	0.12
650.957	0.12
651.288	0.12
651.619	0.13
651.95	0.13
652.281	0.12
652.612	0.12
652.943	0.12
653.274	0.12
653.604	0.13
653.935	0.12
654.266	0.12
654.596	0.12
654.927	0.12
655.258	0.12
655.588	0.13
655.918	0.12
656.249	0.1
656.579	0.12
656.909	0.11
657.24	0.12
657.57	0.12
657.9	0.11
658.23	0.12
658.56	0.12
658.89	0.12
659.22	0.11
659.55	0.11
659.88	0.12
660.209	0.12
660.539	0.13
660.869	0.12
661.198	0.12
661.528	0.12
661.857	0.11
662.187	0.12
662.516	0.12
662.846	0.11
663.175	0.11
663.504	0.12
663.833	0.11
664.163	0.12
664.492	0.11
664.821	0.11
665.15	0.11
665.479	0.11
665.807	0.1
666.136	0.11
666.465	0.1
666.794	0.11
667.122	0.12
667.451	0.11
667.78	0.11
668.108	0.11
668.437	0.11
668.765	0.12
669.093	0.12
669.422	0.12
669.75	0.11
670.078	0.11
670.406	0.12
670.734	0.12
671.062	0.12
671.39	0.11
671.718	0.12
672.046	0.11
672.374	0.11
672.702	0.11
673.029	0.11
673.357	0.12
673.685	0.12
674.012	0.11
674.34	0.11
674.667	0.11
674.995	0.12
675.322	0.12
675.649	0.1
675.977	0.12
676.304	0.12
676.631	0.11
676.958	0.11
677.285	0.1
677.612	0.1
677.939	0.11
678.266	0.11
678.593	0.11
678.92	0.11
679.246	0.1
679.573	0.11
679.9	0.11
680.226	0.11
680.553	0.11
680.879	0.11
681.206	0.12
681.532	0.11
681.858	0.1
682.184	0.11
682.511	0.11
682.837	0.11
683.163	0.12
683.489	0.11
683.815	0.11
684.141	0.11
684.467	0.11
684.793	0.11
685.118	0.1
685.444	0.11
685.77	0.1
686.095	0.11
686.421	0.11
686.746	0.1
687.072	0.11
687.397	0.1
687.723	0.1
688.048	0.1
688.373	0.1
688.698	0.1
689.023	0.09
689.349	0.1
689.674	0.1
689.999	0.1
690.323	0.09
690.648	0.1
690.973	0.09
691.298	0.09
691.623	0.08
691.947	0.09
692.272	0.1
692.596	0.1
692.921	0.1
693.245	0.09
693.57	0.1
693.894	0.1
694.218	0.1
694.543	0.09
694.867	0.1
695.191	0.09
695.515	0.1
695.839	0.1
696.163	0.1
696.487	0.1
696.811	0.1
697.135	0.09
697.458	0.1
697.782	0.09
698.106	0.1
698.429	0.1
698.753	0.1
699.076	0.1
699.4	0.09
699.723	0.1
700.046	0.09
700.37	0.11
700.693	0.1
701.016	0.09
701.339	0.1
701.662	0.1
701.985	0.1
702.308	0.1
702.631	0.09
702.954	0.1
703.277	0.09
703.599	0.09
703.922	0.09
704.245	0.09
704.567	0.08
704.89	0.08
705.212	0.09
705.535	0.08
705.857	0.08
706.179	0.08
706.502	0.08
706.824	0.08
707.146	0.08
707.468	0.09
707.79	0.08
708.112	0.09
708.434	0.08
708.756	0.08
709.078	0.08
709.399	0.08
709.721	0.08
710.043	0.09
710.364	0.08
710.686	0.08
711.007	0.09
711.329	0.09
711.65	0.09
711.972	0.09
712.293	0.09
712.614	0.09
712.935	0.09
713.256	0.09
713.577	0.1
713.898	0.09
714.219	0.09
714.54	0.08
714.861	0.08
715.182	0.09
715.503	0.09
715.823	0.09
716.144	0.08
716.464	0.07
716.785	0.08
717.105	0.08
717.426	0.08
717.746	0.08
718.066	0.07
718.387	0.08
718.707	0.07
719.027	0.08
719.347	0.07
719.667	0.08
719.987	0.08
720.307	0.07
720.627	0.07
720.947	0.07
721.266	0.07
721.586	0.06
721.906	0.07
722.225	0.07
722.545	0.07
722.864	0.07
723.184	0.08
723.503	0.08
723.823	0.08
724.142	0.07
724.461	0.07
