Data from 12-12-AQDScycling_Absorbance__632__00632.txt Node

Date: Tue Dec 12 13:34:44 EST 2023
User: kyuminlee
Spectrometer: FLMS00943
Trigger mode: 0
Integration Time (sec): 1.000000E-1
Scans to average: 1
Electric dark correction enabled: true
Nonlinearity correction enabled: false
Boxcar width: 0
XAxis mode: Wavelengths
Number of Pixels in Spectrum: 2048
>>>>>Begin Spectral Data<<<<<
179.651	-0
180.037	-0
180.424	-0
180.81	1.51
181.197	0.18
181.583	-0
181.97	-0.27
182.356	-0.61
182.743	-0
183.129	0.64
183.515	0.81
183.901	-2.82
184.288	-0
184.674	0.26
185.06	-0
185.446	-0.49
185.832	-0
186.218	0.03
186.604	-0
186.99	-0
187.376	-0.16
187.762	-0.28
188.148	0.07
188.534	-0.36
188.92	0.11
189.305	-0.01
189.691	0.3
190.077	0.11
190.463	0.23
190.848	0.09
191.234	0.08
191.619	0.1
192.005	0.09
192.391	0.15
192.776	0.17
193.161	0.22
193.547	0.16
193.932	-0.02
194.318	0.05
194.703	0.11
195.088	0.13
195.473	0.07
195.859	0.16
196.244	0.2
196.629	0.15
197.014	0.09
197.399	0.18
197.784	0.14
198.169	0.03
198.554	0.2
198.939	0.14
199.324	0.24
199.709	0.13
200.094	0.13
200.478	0.2
200.863	0.24
201.248	0.13
201.633	0.11
202.017	0.09
202.402	0.2
202.787	0.12
203.171	0.15
203.556	0.16
203.94	0.1
204.325	0.23
204.709	0.25
205.093	0.16
205.478	0.13
205.862	0.1
206.246	0.15
206.631	0.24
207.015	0.01
207.399	0.1
207.783	0.05
208.167	0.19
208.551	0.19
208.935	0.26
209.319	0.12
209.703	0.1
210.087	0.1
210.471	0.08
210.855	0.07
211.239	0.19
211.623	0.17
212.007	0.09
212.39	0.27
212.774	0.1
213.158	0.17
213.541	0.35
213.925	0.22
214.309	0.28
214.692	0.31
215.076	0.26
215.459	0.15
215.842	0.2
216.226	0.31
216.609	0.29
216.993	0.13
217.376	0.62
217.759	0.08
218.142	0.46
218.525	0.55
218.909	0.41
219.292	0.38
219.675	0.43
220.058	0.38
220.441	0.6
220.824	0.53
221.207	0.61
221.59	0.52
221.973	0.48
222.355	0.55
222.738	0.65
223.121	0.49
223.504	0.54
223.886	0.65
224.269	0.63
224.652	0.56
225.034	0.6
225.417	0.64
225.799	0.82
226.182	0.71
226.564	0.82
226.947	0.76
227.329	0.8
227.711	0.97
228.094	1.03
228.476	1.06
228.858	0.72
229.24	0.78
229.623	0.93
230.005	0.87
230.387	0.82
230.769	0.81
231.151	1.11
231.533	0.96
231.915	0.86
232.297	1.06
232.679	0.96
233.061	0.99
233.442	0.96
233.824	1.13
234.206	1.06
234.588	1.08
234.969	1.09
235.351	1.16
235.733	1.05
236.114	1.15
236.496	1.08
236.877	1.17
237.259	1.02
237.64	1.05
238.022	0.91
238.403	0.93
238.784	0.99
239.165	0.95
239.547	0.99
239.928	0.98
240.309	0.99
240.69	1.07
241.071	1.06
241.452	1.23
241.834	1.06
242.215	1
242.595	1.16
242.976	1.12
243.357	1.07
243.738	1.05
244.119	1.34
244.5	0.99
244.881	1.26
245.261	1.18
245.642	1.2
246.023	1.23
246.403	1.21
246.784	1.27
247.164	1.26
247.545	1.19
247.925	1.48
248.306	1.12
248.686	1.3
249.067	1.23
249.447	1.28
249.827	1.57
250.207	1.36
250.588	1.34
250.968	1.37
251.348	1.29
251.728	1.36
252.108	1.4
252.488	1.44
252.868	1.39
253.248	1.23
253.628	1.34
254.008	1.37
254.388	1.3
254.768	1.34
255.147	1.36
255.527	1.48
255.907	1.39
256.287	1.38
256.666	1.4
257.046	1.54
257.425	1.38
257.805	1.35
258.184	1.35
258.564	1.38
258.943	1.3
259.323	1.44
259.702	1.41
260.081	1.52
260.461	1.54
260.84	1.49
261.219	1.97
261.598	1.63
261.977	1.39
262.356	1.5
262.736	1.5
263.115	1.68
263.494	1.4
263.873	1.54
264.251	1.5
264.63	1.36
265.009	1.45
265.388	1.38
265.767	1.32
266.145	1.35
266.524	1.48
266.903	1.5
267.281	1.44
267.66	1.54
268.039	1.5
268.417	1.47
268.796	1.3
269.174	1.42
269.552	1.32
269.931	1.4
270.309	1.32
270.687	1.54
271.066	1.52
271.444	1.29
271.822	1.54
272.2	1.62
272.578	1.35
272.956	1.44
273.334	1.51
273.712	1.34
274.09	1.37
274.468	1.2
274.846	1.42
275.224	1.41
275.602	1.57
275.98	1.45
276.357	1.49
276.735	1.53
277.113	1.61
277.49	1.23
277.868	1.33
278.246	1.36
278.623	1.32
279.001	1.29
279.378	1.36
279.756	1.47
280.133	1.59
280.51	1.45
280.888	1.47
281.265	1.27
281.642	1.42
282.019	1.48
282.396	1.54
282.773	1.44
283.151	1.38
283.528	1.48
283.905	1.4
284.282	1.43
284.659	1.68
285.035	1.34
285.412	1.28
285.789	1.43
286.166	1.39
286.543	1.56
286.919	1.31
287.296	1.54
287.673	1.62
288.049	1.62
288.426	1.58
288.802	1.56
289.179	1.5
289.555	1.72
289.932	1.52
290.308	1.34
290.684	1.45
291.061	1.26
291.437	1.68
291.813	1.38
292.189	1.19
292.565	1.24
292.942	1.37
293.318	1.28
293.694	1.41
294.07	1.38
294.446	1.43
294.822	1.4
295.197	1.43
295.573	1.39
295.949	1.34
296.325	1.57
296.701	1.41
297.076	1.53
297.452	1.54
297.828	1.46
298.203	1.46
298.579	1.31
298.954	1.43
299.33	1.33
299.705	1.46
300.081	1.43
300.456	1.33
300.831	1.3
301.206	1.38
301.582	1.51
301.957	1.32
302.332	1.39
302.707	1.33
303.082	1.22
303.457	1.32
303.832	1.29
304.207	1.24
304.582	1.21
304.957	1.23
305.332	1.19
305.707	1.26
306.082	1.23
306.456	1.29
306.831	1.21
307.206	1.27
307.58	1.21
307.955	1.12
308.33	1.2
308.704	1.18
309.079	1.11
309.453	1.2
309.828	1.13
310.202	1.09
310.576	1.21
310.951	1.14
311.325	1.17
311.699	1.08
312.073	1.07
312.447	1.13
312.821	1.1
313.196	1.13
313.57	1.03
313.944	1.02
314.317	1.01
314.691	1.09
315.065	1.08
315.439	1.09
315.813	1.04
316.187	1.03
316.56	1.11
316.934	1.09
317.308	1.08
317.681	1.04
318.055	1.04
318.428	1.04
318.802	1.08
319.175	1.06
319.549	1.05
319.922	1.03
320.295	1.05
320.669	1.11
321.042	1.08
321.415	1.13
321.788	1.04
322.162	1.03
322.535	1.08
322.908	1.09
323.281	1
323.654	1.08
324.027	1.05
324.4	1.09
324.773	1.03
325.145	1.09
325.518	1.03
325.891	1.05
326.264	1.13
326.636	1.07
327.009	1.02
327.382	1.03
327.754	1.1
328.127	1.06
328.499	1.14
328.872	1.1
329.244	1.09
329.616	1.05
329.989	1.07
330.361	1.12
330.733	1.07
331.106	1.11
331.478	1.11
331.85	1.14
332.222	1.12
332.594	1.12
332.966	1.08
333.338	1.22
333.71	1.11
334.082	1.2
334.454	1.17
334.826	1.17
335.197	1.22
335.569	1.2
335.941	1.15
336.312	1.19
336.684	1.17
337.056	1.14
337.427	1.19
337.799	1.18
338.17	1.27
338.542	1.16
338.913	1.19
339.284	1.23
339.656	1.21
340.027	1.22
340.398	1.21
340.769	1.22
341.141	1.25
341.512	1.21
341.883	1.22
342.254	1.2
342.625	1.22
342.996	1.22
343.367	1.25
343.738	1.33
344.108	1.22
344.479	1.35
344.85	1.15
345.221	1.31
345.591	1.24
345.962	1.29
346.333	1.26
346.703	1.2
347.074	1.22
347.444	1.13
347.815	1.2
348.185	1.19
348.556	1.2
348.926	1.22
349.296	1.32
349.666	1.22
350.037	1.13
350.407	1.18
350.777	1.25
351.147	1.27
351.517	1.28
351.887	1.3
352.257	1.34
352.627	1.2
352.997	1.27
353.367	1.4
353.737	1.43
354.106	1.27
354.476	1.29
354.846	1.41
355.216	1.39
355.585	1.42
355.955	1.35
356.324	1.42
356.694	1.47
357.063	1.4
357.433	1.34
357.802	1.38
358.171	1.48
358.541	1.44
358.91	1.53
359.279	1.59
359.648	1.37
360.017	1.52
360.387	1.48
360.756	1.41
361.125	1.45
361.494	1.59
361.863	1.5
362.231	1.46
362.6	1.47
362.969	1.41
363.338	1.44
363.707	1.75
364.075	1.57
364.444	1.36
364.813	1.47
365.181	1.43
365.55	1.5
365.918	1.75
366.287	1.6
366.655	1.59
367.024	1.56
367.392	1.6
367.76	1.57
368.128	1.44
368.497	1.61
368.865	1.53
369.233	1.59
369.601	1.51
369.969	1.5
370.337	1.56
370.705	1.52
371.073	1.55
371.441	1.5
371.809	1.43
372.177	1.62
372.544	1.49
372.912	1.51
373.28	1.54
373.647	1.67
374.015	1.78
374.383	1.79
374.75	1.61
375.118	1.49
375.485	1.52
375.853	1.54
376.22	1.52
376.587	1.47
376.955	1.6
377.322	1.54
377.689	1.66
378.056	1.42
378.423	1.48
378.79	1.46
379.157	1.5
379.524	1.58
379.891	1.5
380.258	1.45
380.625	1.55
380.992	1.5
381.359	1.7
381.726	1.57
382.092	1.51
382.459	1.65
382.826	1.53
383.192	1.56
383.559	1.65
383.925	1.55
384.292	1.6
384.658	1.72
385.025	1.59
385.391	1.69
385.757	1.63
386.123	1.58
386.49	1.63
386.856	1.59
387.222	1.68
387.588	1.47
387.954	1.71
388.32	1.71
388.686	1.59
389.052	1.47
389.418	1.53
389.784	1.5
390.15	1.7
390.515	1.42
390.881	1.74
391.247	1.51
391.613	1.63
391.978	1.45
392.344	1.59
392.709	1.53
393.075	1.55
393.44	1.54
393.806	1.64
394.171	1.56
394.536	1.49
394.902	1.47
395.267	1.48
395.632	1.46
395.997	1.4
396.362	1.53
396.727	1.61
397.092	1.45
397.457	1.57
397.822	1.5
398.187	1.53
398.552	1.65
398.917	1.64
399.282	1.5
399.646	1.47
400.011	1.71
400.376	1.49
400.74	1.54
401.105	1.55
401.47	1.51
401.834	1.49
402.199	1.57
402.563	1.51
402.927	1.58
403.292	1.72
403.656	1.63
404.02	1.39
404.384	1.8
404.749	1.54
405.113	1.48
405.477	1.65
405.841	1.6
406.205	1.63
406.569	1.39
406.933	1.5
407.296	1.54
407.66	1.64
408.024	1.49
408.388	1.62
408.752	1.51
409.115	1.59
409.479	1.55
409.842	1.59
410.206	1.43
410.569	1.5
410.933	1.65
411.296	1.43
411.66	1.69
412.023	1.45
412.386	1.4
412.749	1.49
413.113	1.6
413.476	1.53
413.839	1.45
414.202	1.42
414.565	1.42
414.928	1.45
415.291	1.27
415.654	1.55
416.017	1.62
416.38	1.46
416.742	1.38
417.105	1.37
417.468	1.5
417.83	1.51
418.193	1.5
418.556	1.37
418.918	1.42
419.281	1.49
419.643	1.51
420.005	1.51
420.368	1.45
420.73	1.43
421.092	1.51
421.455	1.51
421.817	1.42
422.179	1.42
422.541	1.48
422.903	1.65
423.265	1.52
423.627	1.44
423.989	1.43
424.351	1.46
424.713	1.42
425.075	1.42
425.436	1.42
425.798	1.46
426.16	1.56
426.521	1.42
426.883	1.5
427.245	1.52
427.606	1.45
427.967	1.37
428.329	1.41
428.69	1.62
429.052	1.42
429.413	1.51
429.774	1.57
430.135	1.52
430.497	1.47
430.858	1.38
431.219	1.5
431.58	1.49
431.941	1.4
432.302	1.37
432.663	1.51
433.024	1.47
433.384	1.58
433.745	1.39
434.106	1.5
434.467	1.46
434.827	1.44
435.188	1.44
435.548	1.45
435.909	1.42
436.269	1.44
436.63	1.34
436.99	1.38
437.351	1.31
437.711	1.44
438.071	1.31
438.431	1.39
438.792	1.43
439.152	1.39
439.512	1.33
439.872	1.37
440.232	1.38
440.592	1.37
440.952	1.34
441.312	1.36
441.671	1.31
442.031	1.37
442.391	1.31
442.751	1.4
443.11	1.42
443.47	1.29
443.83	1.23
444.189	1.3
444.549	1.33
444.908	1.24
445.267	1.28
445.627	1.28
445.986	1.32
446.345	1.24
446.705	1.28
447.064	1.27
447.423	1.26
447.782	1.25
448.141	1.24
448.5	1.2
448.859	1.19
449.218	1.18
449.577	1.23
449.936	1.2
450.295	1.16
450.653	1.17
451.012	1.17
451.371	1.16
451.729	1.18
452.088	1.14
452.447	1.16
452.805	1.14
453.163	1.12
453.522	1.11
453.88	1.11
454.239	1.09
454.597	1.06
454.955	1.07
455.313	1.08
455.671	1.06
456.029	1.05
456.388	1.05
456.746	1.02
457.104	1
457.461	1
457.819	1
458.177	0.98
458.535	0.99
458.893	0.96
459.25	0.95
459.608	0.94
459.966	0.91
460.323	0.91
460.681	0.89
461.038	0.87
461.396	0.86
461.753	0.85
462.111	0.86
462.468	0.83
462.825	0.82
463.182	0.82
463.54	0.79
463.897	0.82
464.254	0.79
464.611	0.79
464.968	0.77
465.325	0.77
465.682	0.75
466.039	0.74
466.395	0.71
466.752	0.72
467.109	0.7
467.466	0.69
467.822	0.69
468.179	0.67
468.535	0.68
468.892	0.66
469.248	0.64
469.605	0.63
469.961	0.62
470.318	0.63
470.674	0.62
471.03	0.59
471.386	0.59
471.743	0.59
472.099	0.57
472.455	0.57
472.811	0.55
473.167	0.55
473.523	0.52
473.879	0.53
474.235	0.53
474.59	0.51
474.946	0.5
475.302	0.5
475.657	0.49
476.013	0.48
476.369	0.46
476.724	0.46
477.08	0.46
477.435	0.45
477.791	0.45
478.146	0.44
478.501	0.43
478.857	0.43
479.212	0.42
479.567	0.41
479.922	0.4
480.277	0.39
480.632	0.39
480.987	0.38
481.342	0.37
481.697	0.37
482.052	0.36
482.407	0.35
482.762	0.35
483.116	0.34
483.471	0.34
483.826	0.33
484.18	0.33
484.535	0.32
484.89	0.32
485.244	0.31
485.598	0.31
485.953	0.3
486.307	0.3
486.661	0.3
487.016	0.29
487.37	0.29
487.724	0.27
488.078	0.27
488.432	0.27
488.786	0.27
489.14	0.26
489.494	0.26
489.848	0.25
490.202	0.25
490.556	0.25
490.91	0.25
491.263	0.24
491.617	0.25
491.971	0.23
492.324	0.23
492.678	0.23
493.031	0.23
493.385	0.22
493.738	0.22
494.091	0.22
494.445	0.21
494.798	0.21
495.151	0.21
495.504	0.21
495.857	0.2
496.21	0.2
496.564	0.19
496.916	0.2
497.269	0.19
497.622	0.19
497.975	0.19
498.328	0.19
498.681	0.18
499.033	0.18
499.386	0.18
499.739	0.18
500.091	0.18
500.444	0.17
500.796	0.17
501.149	0.17
501.501	0.17
501.854	0.16
502.206	0.17
502.558	0.17
502.91	0.17
503.263	0.16
503.615	0.16
503.967	0.16
504.319	0.16
504.671	0.16
505.023	0.16
505.375	0.15
505.726	0.16
506.078	0.16
506.43	0.16
506.782	0.15
507.133	0.15
507.485	0.16
507.837	0.16
508.188	0.15
508.54	0.15
508.891	0.16
509.243	0.14
509.594	0.15
509.945	0.15
510.296	0.14
510.648	0.15
510.999	0.14
511.35	0.14
511.701	0.15
512.052	0.15
512.403	0.15
512.754	0.14
513.105	0.14
513.456	0.14
513.807	0.13
514.157	0.14
514.508	0.14
514.859	0.14
515.209	0.13
515.56	0.14
515.91	0.13
516.261	0.14
516.611	0.14
516.962	0.14
517.312	0.13
517.662	0.13
518.013	0.14
518.363	0.14
518.713	0.14
519.063	0.14
519.413	0.14
519.763	0.14
520.113	0.14
520.463	0.14
520.813	0.14
521.163	0.14
521.512	0.14
521.862	0.14
522.212	0.14
522.562	0.14
522.911	0.14
523.261	0.13
523.61	0.14
523.96	0.14
524.309	0.14
524.658	0.14
525.008	0.13
525.357	0.14
525.706	0.14
526.056	0.14
526.405	0.14
526.754	0.14
527.103	0.13
527.452	0.13
527.801	0.14
528.15	0.14
528.499	0.14
528.847	0.14
529.196	0.14
529.545	0.14
529.893	0.15
530.242	0.14
530.591	0.14
530.939	0.15
531.288	0.13
531.636	0.15
531.985	0.14
532.333	0.14
532.681	0.14
533.029	0.14
533.378	0.15
533.726	0.15
534.074	0.15
534.422	0.14
534.77	0.14
535.118	0.14
535.466	0.14
535.814	0.14
536.162	0.15
536.509	0.15
536.857	0.14
537.205	0.15
537.552	0.15
537.9	0.14
538.248	0.14
538.595	0.15
538.943	0.14
539.29	0.15
539.637	0.15
539.985	0.14
540.332	0.14
540.679	0.15
541.026	0.14
541.373	0.14
541.721	0.14
542.068	0.14
542.415	0.15
542.762	0.14
543.108	0.12
543.455	0.13
543.802	0.14
544.149	0.14
544.496	0.13
544.842	0.13
545.189	0.12
545.535	0.13
545.882	0.13
546.228	0.13
546.575	0.13
546.921	0.13
547.267	0.13
547.614	0.13
547.96	0.14
548.306	0.13
548.652	0.13
548.998	0.14
549.344	0.13
549.69	0.13
550.036	0.13
550.382	0.13
550.728	0.13
551.074	0.14
551.42	0.14
551.765	0.14
552.111	0.14
552.457	0.15
552.802	0.13
553.148	0.13
553.493	0.13
553.839	0.13
554.184	0.14
554.529	0.13
554.875	0.14
555.22	0.14
555.565	0.14
555.91	0.14
556.255	0.15
556.6	0.15
556.945	0.14
557.29	0.14
557.635	0.15
557.98	0.14
558.325	0.14
558.67	0.14
559.014	0.14
559.359	0.14
559.704	0.14
560.048	0.13
560.393	0.14
560.737	0.13
561.082	0.14
561.426	0.13
561.77	0.13
562.115	0.13
562.459	0.13
562.803	0.13
563.147	0.14
563.491	0.14
563.835	0.14
564.179	0.14
564.523	0.14
564.867	0.14
565.211	0.14
565.555	0.14
565.899	0.15
566.242	0.15
566.586	0.14
566.93	0.14
567.273	0.14
567.617	0.14
567.96	0.14
568.304	0.14
568.647	0.14
568.99	0.14
569.334	0.14
569.677	0.14
570.02	0.15
570.363	0.15
570.706	0.14
571.049	0.15
571.392	0.16
571.735	0.14
572.078	0.15
572.421	0.16
572.764	0.14
573.106	0.14
573.449	0.14
573.792	0.14
574.134	0.14
574.477	0.14
574.819	0.14
575.162	0.14
575.504	0.13
575.847	0.14
576.189	0.14
576.531	0.15
576.873	0.14
577.215	0.14
577.558	0.14
577.9	0.13
578.242	0.14
578.584	0.14
578.926	0.13
579.267	0.14
579.609	0.15
579.951	0.14
580.293	0.14
580.634	0.14
580.976	0.14
581.318	0.14
581.659	0.14
582.001	0.14
582.342	0.13
582.683	0.13
583.025	0.14
583.366	0.13
583.707	0.14
584.049	0.14
584.39	0.14
584.731	0.13
585.072	0.14
585.413	0.14
585.754	0.14
586.095	0.14
586.435	0.13
586.776	0.14
587.117	0.13
587.458	0.14
587.798	0.14
588.139	0.14
588.48	0.13
588.82	0.13
589.161	0.13
589.501	0.13
589.841	0.13
590.182	0.13
590.522	0.13
590.862	0.13
591.202	0.14
591.542	0.13
591.882	0.14
592.222	0.13
592.562	0.13
592.902	0.13
593.242	0.13
593.582	0.14
593.922	0.13
594.261	0.13
594.601	0.13
594.941	0.13
595.28	0.14
595.62	0.14
595.959	0.13
596.299	0.13
596.638	0.13
596.977	0.13
597.317	0.14
597.656	0.13
597.995	0.14
598.334	0.15
598.673	0.14
599.012	0.14
599.351	0.14
599.69	0.14
600.029	0.14
600.368	0.15
600.707	0.14
601.046	0.13
601.384	0.14
601.723	0.14
602.061	0.14
602.4	0.14
602.738	0.14
603.077	0.14
603.415	0.13
603.754	0.14
604.092	0.14
604.43	0.13
604.768	0.13
605.107	0.14
605.445	0.13
605.783	0.14
606.121	0.13
606.459	0.13
606.796	0.13
607.134	0.13
607.472	0.13
607.81	0.13
608.148	0.13
608.485	0.14
608.823	0.13
609.16	0.13
609.498	0.13
609.835	0.13
610.173	0.14
610.51	0.13
610.847	0.13
611.185	0.13
611.522	0.14
611.859	0.13
612.196	0.14
612.533	0.14
612.87	0.14
613.207	0.13
613.544	0.14
613.881	0.14
614.217	0.14
614.554	0.14
614.891	0.15
615.228	0.14
615.564	0.14
615.901	0.14
616.237	0.14
616.574	0.14
616.91	0.15
617.246	0.14
617.583	0.15
617.919	0.14
618.255	0.15
618.591	0.14
618.927	0.14
619.263	0.14
619.599	0.14
619.935	0.14
620.271	0.14
620.607	0.14
620.943	0.13
621.279	0.14
621.614	0.14
621.95	0.14
622.286	0.14
622.621	0.14
622.957	0.14
623.292	0.13
623.627	0.13
623.963	0.13
624.298	0.14
624.633	0.13
624.968	0.13
625.304	0.13
625.639	0.13
625.974	0.13
626.309	0.12
626.644	0.13
626.979	0.13
627.313	0.13
627.648	0.13
627.983	0.13
628.318	0.13
628.652	0.12
628.987	0.13
629.321	0.13
629.656	0.12
629.99	0.12
630.325	0.12
630.659	0.12
630.993	0.12
631.327	0.13
631.662	0.11
631.996	0.11
632.33	0.12
632.664	0.12
632.998	0.11
633.332	0.11
633.666	0.12
633.999	0.12
634.333	0.11
634.667	0.12
635.001	0.12
635.334	0.12
635.668	0.11
636.001	0.12
636.335	0.12
636.668	0.13
637.001	0.11
637.335	0.12
637.668	0.12
638.001	0.11
638.334	0.12
638.668	0.11
639.001	0.11
639.334	0.11
639.667	0.12
639.999	0.11
640.332	0.12
640.665	0.12
640.998	0.12
641.331	0.12
641.663	0.11
641.996	0.11
642.328	0.12
642.661	0.11
642.993	0.11
643.326	0.11
643.658	0.11
643.99	0.11
644.323	0.11
644.655	0.11
644.987	0.12
645.319	0.12
645.651	0.12
645.983	0.11
646.315	0.11
646.647	0.11
646.979	0.12
647.31	0.12
647.642	0.11
647.974	0.11
648.305	0.12
648.637	0.11
648.968	0.11
649.3	0.11
649.631	0.12
649.963	0.12
650.294	0.12
650.625	0.12
650.957	0.12
651.288	0.12
651.619	0.12
651.95	0.12
652.281	0.12
652.612	0.11
652.943	0.12
653.274	0.12
653.604	0.12
653.935	0.12
654.266	0.12
654.596	0.11
654.927	0.11
655.258	0.12
655.588	0.12
655.918	0.11
656.249	0.1
656.579	0.11
656.909	0.11
657.24	0.11
657.57	0.12
657.9	0.11
658.23	0.11
658.56	0.11
658.89	0.11
659.22	0.11
659.55	0.11
659.88	0.11
660.209	0.11
660.539	0.12
660.869	0.11
661.198	0.12
661.528	0.11
661.857	0.11
662.187	0.11
662.516	0.11
662.846	0.11
663.175	0.1
663.504	0.11
663.833	0.1
664.163	0.11
664.492	0.11
664.821	0.11
665.15	0.11
665.479	0.12
665.807	0.11
666.136	0.11
666.465	0.11
666.794	0.11
667.122	0.11
667.451	0.11
667.78	0.11
668.108	0.12
668.437	0.11
668.765	0.11
669.093	0.11
669.422	0.11
669.75	0.11
670.078	0.11
670.406	0.11
670.734	0.12
671.062	0.11
671.39	0.1
671.718	0.1
672.046	0.11
672.374	0.1
672.702	0.1
673.029	0.1
673.357	0.11
673.685	0.11
674.012	0.1
674.34	0.1
674.667	0.11
674.995	0.11
675.322	0.1
675.649	0.1
675.977	0.11
676.304	0.1
676.631	0.1
676.958	0.1
677.285	0.1
677.612	0.1
677.939	0.1
678.266	0.11
678.593	0.1
678.92	0.09
679.246	0.1
679.573	0.1
679.9	0.09
680.226	0.1
680.553	0.1
680.879	0.1
681.206	0.1
681.532	0.09
681.858	0.1
682.184	0.1
682.511	0.1
682.837	0.1
683.163	0.1
683.489	0.1
683.815	0.11
684.141	0.1
684.467	0.1
684.793	0.09
685.118	0.1
685.444	0.1
685.77	0.1
686.095	0.1
686.421	0.1
686.746	0.09
687.072	0.11
687.397	0.09
687.723	0.1
688.048	0.1
688.373	0.09
688.698	0.1
689.023	0.1
689.349	0.1
689.674	0.1
689.999	0.09
690.323	0.09
690.648	0.09
690.973	0.09
691.298	0.09
691.623	0.09
691.947	0.1
692.272	0.09
692.596	0.1
692.921	0.1
693.245	0.09
693.57	0.1
693.894	0.09
694.218	0.1
694.543	0.1
694.867	0.1
695.191	0.09
695.515	0.1
695.839	0.09
696.163	0.1
696.487	0.11
696.811	0.09
697.135	0.09
697.458	0.1
697.782	0.09
698.106	0.09
698.429	0.09
698.753	0.09
699.076	0.09
699.4	0.09
699.723	0.09
700.046	0.09
700.37	0.1
700.693	0.1
701.016	0.09
701.339	0.1
701.662	0.1
701.985	0.1
702.308	0.09
702.631	0.09
702.954	0.1
703.277	0.1
703.599	0.09
703.922	0.08
704.245	0.09
704.567	0.09
704.89	0.08
705.212	0.09
705.535	0.08
705.857	0.08
706.179	0.08
706.502	0.09
706.824	0.08
707.146	0.08
707.468	0.09
707.79	0.09
708.112	0.09
708.434	0.09
708.756	0.08
709.078	0.09
709.399	0.09
709.721	0.08
710.043	0.09
710.364	0.09
710.686	0.09
711.007	0.09
711.329	0.1
711.65	0.08
711.972	0.09
712.293	0.09
712.614	0.09
712.935	0.09
713.256	0.09
713.577	0.1
713.898	0.09
714.219	0.09
714.54	0.08
714.861	0.07
715.182	0.08
715.503	0.07
715.823	0.08
716.144	0.08
716.464	0.07
716.785	0.07
717.105	0.07
717.426	0.07
717.746	0.07
718.066	0.07
718.387	0.07
718.707	0.07
719.027	0.08
719.347	0.07
719.667	0.08
719.987	0.07
720.307	0.07
720.627	0.07
720.947	0.07
721.266	0.07
721.586	0.07
721.906	0.07
722.225	0.07
722.545	0.07
722.864	0.07
723.184	0.08
723.503	0.08
723.823	0.08
724.142	0.07
724.461	0.07
724.78	0.08
