Data from 12-12-AQDScycling_Absorbance__405__00405.txt Node

Date: Tue Dec 12 12:37:59 EST 2023
User: kyuminlee
Spectrometer: FLMS00943
Trigger mode: 0
Integration Time (sec): 1.000000E-1
Scans to average: 1
Electric dark correction enabled: true
Nonlinearity correction enabled: false
Boxcar width: 0
XAxis mode: Wavelengths
Number of Pixels in Spectrum: 2048
>>>>>Begin Spectral Data<<<<<
179.651	-0
180.037	-0
180.424	-0
180.81	-0.11
181.197	0.28
181.583	-0
181.97	-0.5
182.356	-0
182.743	-0
183.129	0.06
183.515	0.34
183.901	-2.56
184.288	0.57
184.674	-0
185.06	-1.02
185.446	1.2
185.832	-0
186.218	0.1
186.604	-0.28
186.99	0.04
187.376	0.26
187.762	-0
188.148	0.17
188.534	-0
188.92	0.11
189.305	0.13
189.691	0.15
190.077	0.11
190.463	0.18
190.848	-0.05
191.234	-0.06
191.619	0.02
192.005	0.09
192.391	0.16
192.776	0.1
193.161	0.21
193.547	0.18
193.932	0.09
194.318	0.09
194.703	0.16
195.088	0.19
195.473	0.16
195.859	0.13
196.244	0.16
196.629	0.12
197.014	0.22
197.399	0.22
197.784	0.2
198.169	0.16
198.554	0.22
198.939	0.02
199.324	0.16
199.709	0.05
200.094	0.12
200.478	0.2
200.863	0.23
201.248	0.08
201.633	0.22
202.017	0.22
202.402	0.24
202.787	0.25
203.171	0.18
203.556	0.18
203.94	0.23
204.325	0.22
204.709	0.22
205.093	0.16
205.478	0.16
205.862	0.23
206.246	0.15
206.631	0.11
207.015	0.1
207.399	0.09
207.783	0.15
208.167	0.12
208.551	0.27
208.935	0.18
209.319	0.2
209.703	0.21
210.087	0.19
210.471	-0
210.855	0.12
211.239	0.16
211.623	0.23
212.007	0.22
212.39	0.25
212.774	0.22
213.158	0.17
213.541	0.2
213.925	0.33
214.309	0.42
214.692	0.45
215.076	0.33
215.459	0.14
215.842	0.17
216.226	0.19
216.609	0.26
216.993	0.17
217.376	0.45
217.759	0.14
218.142	0.32
218.525	0.53
218.909	0.43
219.292	0.34
219.675	0.31
220.058	0.38
220.441	0.59
220.824	0.52
221.207	0.66
221.59	0.5
221.973	0.59
222.355	0.73
222.738	0.77
223.121	0.7
223.504	0.6
223.886	0.62
224.269	0.72
224.652	0.69
225.034	0.73
225.417	0.72
225.799	0.83
226.182	1.06
226.564	0.94
226.947	0.72
227.329	0.88
227.711	0.93
228.094	1.01
228.476	0.86
228.858	0.86
229.24	0.81
229.623	0.85
230.005	0.82
230.387	0.89
230.769	0.85
231.151	1.07
231.533	0.92
231.915	0.98
232.297	0.99
232.679	0.9
233.061	1.06
233.442	1.19
233.824	0.96
234.206	1.02
234.588	1.21
234.969	1.02
235.351	1.01
235.733	1.04
236.114	1.25
236.496	1.16
236.877	1.22
237.259	1.07
237.64	1.03
238.022	1
238.403	1.04
238.784	1.08
239.165	1.05
239.547	1.09
239.928	1.13
240.309	1.12
240.69	1.08
241.071	1.21
241.452	1.21
241.834	1.07
242.215	1.06
242.595	1.11
242.976	1.21
243.357	1.12
243.738	1.02
244.119	1.32
244.5	1.26
244.881	1.15
245.261	1.24
245.642	1.33
246.023	1.17
246.403	1.27
246.784	1.28
247.164	1.21
247.545	1.35
247.925	1.38
248.306	1.23
248.686	1.46
249.067	1.18
249.447	1.4
249.827	1.55
250.207	1.4
250.588	1.23
250.968	1.39
251.348	1.27
251.728	1.4
252.108	1.39
252.488	1.43
252.868	1.3
253.248	1.27
253.628	1.4
254.008	1.53
254.388	1.36
254.768	1.29
255.147	1.44
255.527	1.53
255.907	1.36
256.287	1.34
256.666	1.43
257.046	1.45
257.425	1.71
257.805	1.26
258.184	1.37
258.564	1.34
258.943	1.47
259.323	1.49
259.702	1.62
260.081	1.5
260.461	1.52
260.84	1.37
261.219	1.9
261.598	1.47
261.977	1.4
262.356	1.77
262.736	1.6
263.115	1.65
263.494	1.33
263.873	1.42
264.251	1.46
264.63	1.52
265.009	1.43
265.388	1.45
265.767	1.38
266.145	1.55
266.524	1.38
266.903	1.42
267.281	1.4
267.66	1.46
268.039	1.46
268.417	1.41
268.796	1.47
269.174	1.56
269.552	1.29
269.931	1.49
270.309	1.3
270.687	1.51
271.066	1.55
271.444	1.44
271.822	1.47
272.2	1.51
272.578	1.47
272.956	1.56
273.334	1.4
273.712	1.44
274.09	1.46
274.468	1.59
274.846	1.29
275.224	1.41
275.602	1.44
275.98	1.65
276.357	1.32
276.735	1.54
277.113	1.37
277.49	1.23
277.868	1.25
278.246	1.57
278.623	1.34
279.001	1.39
279.378	1.32
279.756	1.52
280.133	1.54
280.51	1.46
280.888	1.38
281.265	1.35
281.642	1.49
282.019	1.54
282.396	1.58
282.773	1.57
283.151	1.55
283.528	1.5
283.905	1.39
284.282	1.46
284.659	1.47
285.035	1.34
285.412	1.31
285.789	1.49
286.166	1.48
286.543	1.33
286.919	1.63
287.296	1.39
287.673	1.93
288.049	1.51
288.426	1.46
288.802	1.45
289.179	1.7
289.555	1.76
289.932	1.43
290.308	1.26
290.684	1.42
291.061	1.38
291.437	1.65
291.813	1.66
292.189	1.22
292.565	1.33
292.942	1.38
293.318	1.47
293.694	1.38
294.07	1.29
294.446	1.39
294.822	1.6
295.197	1.39
295.573	1.38
295.949	1.53
296.325	1.54
296.701	1.44
297.076	1.51
297.452	1.56
297.828	1.48
298.203	1.59
298.579	1.46
298.954	1.42
299.33	1.4
299.705	1.48
300.081	1.49
300.456	1.45
300.831	1.36
301.206	1.34
301.582	1.55
301.957	1.51
302.332	1.58
302.707	1.32
303.082	1.33
303.457	1.45
303.832	1.46
304.207	1.3
304.582	1.35
304.957	1.39
305.332	1.32
305.707	1.38
306.082	1.47
306.456	1.43
306.831	1.35
307.206	1.35
307.58	1.26
307.955	1.3
308.33	1.3
308.704	1.32
309.079	1.27
309.453	1.38
309.828	1.34
310.202	1.28
310.576	1.28
310.951	1.29
311.325	1.27
311.699	1.28
312.073	1.29
312.447	1.26
312.821	1.33
313.196	1.28
313.57	1.24
313.944	1.21
314.317	1.2
314.691	1.34
315.065	1.21
315.439	1.28
315.813	1.3
316.187	1.22
316.56	1.3
316.934	1.33
317.308	1.28
317.681	1.27
318.055	1.2
318.428	1.22
318.802	1.29
319.175	1.28
319.549	1.3
319.922	1.18
320.295	1.24
320.669	1.3
321.042	1.34
321.415	1.36
321.788	1.27
322.162	1.34
322.535	1.39
322.908	1.36
323.281	1.24
323.654	1.34
324.027	1.29
324.4	1.34
324.773	1.29
325.145	1.34
325.518	1.24
325.891	1.33
326.264	1.3
326.636	1.26
327.009	1.24
327.382	1.28
327.754	1.41
328.127	1.23
328.499	1.3
328.872	1.29
329.244	1.36
329.616	1.32
329.989	1.28
330.361	1.33
330.733	1.25
331.106	1.33
331.478	1.35
331.85	1.36
332.222	1.3
332.594	1.29
332.966	1.31
333.338	1.37
333.71	1.43
334.082	1.43
334.454	1.29
334.826	1.4
335.197	1.42
335.569	1.32
335.941	1.27
336.312	1.35
336.684	1.37
337.056	1.33
337.427	1.42
337.799	1.32
338.17	1.4
338.542	1.3
338.913	1.31
339.284	1.4
339.656	1.31
340.027	1.45
340.398	1.36
340.769	1.35
341.141	1.45
341.512	1.37
341.883	1.44
342.254	1.3
342.625	1.43
342.996	1.33
343.367	1.34
343.738	1.4
344.108	1.31
344.479	1.47
344.85	1.29
345.221	1.4
345.591	1.31
345.962	1.34
346.333	1.33
346.703	1.19
347.074	1.35
347.444	1.24
347.815	1.24
348.185	1.37
348.556	1.31
348.926	1.26
349.296	1.28
349.666	1.31
350.037	1.21
350.407	1.2
350.777	1.34
351.147	1.28
351.517	1.25
351.887	1.43
352.257	1.55
352.627	1.27
352.997	1.26
353.367	1.35
353.737	1.4
354.106	1.52
354.476	1.36
354.846	1.41
355.216	1.38
355.585	1.43
355.955	1.34
356.324	1.33
356.694	1.44
357.063	1.39
357.433	1.32
357.802	1.37
358.171	1.47
358.541	1.43
358.91	1.43
359.279	1.51
359.648	1.35
360.017	1.41
360.387	1.41
360.756	1.45
361.125	1.43
361.494	1.5
361.863	1.38
362.231	1.4
362.6	1.5
362.969	1.52
363.338	1.31
363.707	1.54
364.075	1.44
364.444	1.41
364.813	1.45
365.181	1.44
365.55	1.47
365.918	1.43
366.287	1.47
366.655	1.5
367.024	1.45
367.392	1.53
367.76	1.52
368.128	1.4
368.497	1.42
368.865	1.39
369.233	1.45
369.601	1.43
369.969	1.45
370.337	1.61
370.705	1.51
371.073	1.42
371.441	1.54
371.809	1.43
372.177	1.39
372.544	1.39
372.912	1.5
373.28	1.5
373.647	1.52
374.015	1.55
374.383	1.71
374.75	1.59
375.118	1.41
375.485	1.52
375.853	1.78
376.22	1.42
376.587	1.46
376.955	1.56
377.322	1.56
377.689	1.48
378.056	1.5
378.423	1.41
378.79	1.47
379.157	1.45
379.524	1.53
379.891	1.49
380.258	1.56
380.625	1.44
380.992	1.46
381.359	1.6
381.726	1.75
382.092	1.44
382.459	1.5
382.826	1.47
383.192	1.62
383.559	1.58
383.925	1.49
384.292	1.6
384.658	1.7
385.025	1.52
385.391	1.69
385.757	1.69
386.123	1.6
386.49	1.53
386.856	1.59
387.222	1.52
387.588	1.49
387.954	1.91
388.32	1.59
388.686	1.72
389.052	1.48
389.418	1.58
389.784	1.48
390.15	1.79
390.515	1.42
390.881	1.57
391.247	1.53
391.613	1.77
391.978	1.46
392.344	1.67
392.709	1.58
393.075	1.59
393.44	1.55
393.806	1.53
394.171	1.45
394.536	1.53
394.902	1.54
395.267	1.55
395.632	1.5
395.997	1.46
396.362	1.56
396.727	1.62
397.092	1.42
397.457	1.62
397.822	1.5
398.187	1.59
398.552	1.56
398.917	1.7
399.282	1.61
399.646	1.57
400.011	1.69
400.376	1.53
400.74	1.57
401.105	1.54
401.47	1.57
401.834	1.6
402.199	1.46
402.563	1.45
402.927	1.47
403.292	1.56
403.656	1.54
404.02	1.65
404.384	1.69
404.749	1.49
405.113	1.6
405.477	1.58
405.841	1.64
406.205	1.51
406.569	1.5
406.933	1.57
407.296	1.51
407.66	1.53
408.024	1.56
408.388	1.49
408.752	1.54
409.115	1.61
409.479	1.48
409.842	1.44
410.206	1.3
410.569	1.46
410.933	1.38
411.296	1.51
411.66	1.39
412.023	1.46
412.386	1.55
412.749	1.39
413.113	1.4
413.476	1.41
413.839	1.53
414.202	1.4
414.565	1.46
414.928	1.44
415.291	1.3
415.654	1.42
416.017	1.67
416.38	1.35
416.742	1.34
417.105	1.36
417.468	1.45
417.83	1.39
418.193	1.46
418.556	1.39
418.918	1.41
419.281	1.54
419.643	1.41
420.005	1.44
420.368	1.51
420.73	1.33
421.092	1.49
421.455	1.43
421.817	1.3
422.179	1.36
422.541	1.36
422.903	1.43
423.265	1.51
423.627	1.4
423.989	1.42
424.351	1.34
424.713	1.36
425.075	1.41
425.436	1.31
425.798	1.42
426.16	1.41
426.521	1.31
426.883	1.47
427.245	1.34
427.606	1.27
427.967	1.23
428.329	1.31
428.69	1.43
429.052	1.29
429.413	1.37
429.774	1.43
430.135	1.36
430.497	1.36
430.858	1.3
431.219	1.36
431.58	1.29
431.941	1.36
432.302	1.35
432.663	1.32
433.024	1.42
433.384	1.38
433.745	1.33
434.106	1.28
434.467	1.31
434.827	1.29
435.188	1.29
435.548	1.35
435.909	1.33
436.269	1.32
436.63	1.26
436.99	1.27
437.351	1.19
437.711	1.29
438.071	1.25
438.431	1.24
438.792	1.23
439.152	1.21
439.512	1.23
439.872	1.2
440.232	1.21
440.592	1.25
440.952	1.21
441.312	1.16
441.671	1.22
442.031	1.17
442.391	1.18
442.751	1.19
443.11	1.21
443.47	1.13
443.83	1.15
444.189	1.15
444.549	1.13
444.908	1.09
445.267	1.1
445.627	1.13
445.986	1.08
446.345	1.1
446.705	1.1
447.064	1.1
447.423	1.11
447.782	1.05
448.141	1.06
448.5	1
448.859	1.02
449.218	1.05
449.577	1.07
449.936	1.05
450.295	1.05
450.653	1.03
451.012	1.02
451.371	1.02
451.729	0.99
452.088	1.01
452.447	1.01
452.805	0.98
453.163	1.01
453.522	0.99
453.88	0.98
454.239	0.95
454.597	0.95
454.955	0.92
455.313	0.93
455.671	0.93
456.029	0.92
456.388	0.91
456.746	0.89
457.104	0.88
457.461	0.88
457.819	0.87
458.177	0.88
458.535	0.86
458.893	0.83
459.25	0.83
459.608	0.81
459.966	0.8
460.323	0.8
460.681	0.78
461.038	0.78
461.396	0.77
461.753	0.76
462.111	0.75
462.468	0.72
462.825	0.73
463.182	0.71
463.54	0.71
463.897	0.71
464.254	0.69
464.611	0.69
464.968	0.68
465.325	0.68
465.682	0.67
466.039	0.66
466.395	0.65
466.752	0.64
467.109	0.62
467.466	0.62
467.822	0.62
468.179	0.59
468.535	0.6
468.892	0.59
469.248	0.56
469.605	0.56
469.961	0.55
470.318	0.56
470.674	0.53
471.03	0.54
471.386	0.54
471.743	0.52
472.099	0.52
472.455	0.5
472.811	0.5
473.167	0.5
473.523	0.49
473.879	0.47
474.235	0.46
474.59	0.45
474.946	0.45
475.302	0.45
475.657	0.44
476.013	0.43
476.369	0.42
476.724	0.43
477.08	0.41
477.435	0.41
477.791	0.41
478.146	0.4
478.501	0.39
478.857	0.4
479.212	0.38
479.567	0.38
479.922	0.37
480.277	0.37
480.632	0.36
480.987	0.35
481.342	0.34
481.697	0.35
482.052	0.33
482.407	0.34
482.762	0.33
483.116	0.32
483.471	0.32
483.826	0.31
484.18	0.31
484.535	0.31
484.89	0.29
485.244	0.29
485.598	0.29
485.953	0.29
486.307	0.28
486.661	0.28
487.016	0.28
487.37	0.28
487.724	0.27
488.078	0.27
488.432	0.27
488.786	0.26
489.14	0.26
489.494	0.25
489.848	0.25
490.202	0.24
490.556	0.24
490.91	0.24
491.263	0.24
491.617	0.24
491.971	0.23
492.324	0.23
492.678	0.23
493.031	0.23
493.385	0.22
493.738	0.23
494.091	0.22
494.445	0.22
494.798	0.22
495.151	0.21
495.504	0.21
495.857	0.21
496.21	0.21
496.564	0.2
496.916	0.21
497.269	0.2
497.622	0.2
497.975	0.2
498.328	0.2
498.681	0.2
499.033	0.19
499.386	0.19
499.739	0.19
500.091	0.18
500.444	0.19
500.796	0.19
501.149	0.18
501.501	0.19
501.854	0.18
502.206	0.18
502.558	0.18
502.91	0.18
503.263	0.17
503.615	0.17
503.967	0.17
504.319	0.17
504.671	0.17
505.023	0.17
505.375	0.17
505.726	0.17
506.078	0.17
506.43	0.16
506.782	0.15
507.133	0.16
507.485	0.16
507.837	0.18
508.188	0.17
508.54	0.17
508.891	0.18
509.243	0.17
509.594	0.16
509.945	0.17
510.296	0.16
510.648	0.17
510.999	0.16
511.35	0.16
511.701	0.16
512.052	0.16
512.403	0.16
512.754	0.16
513.105	0.16
513.456	0.16
513.807	0.15
514.157	0.16
514.508	0.17
514.859	0.15
515.209	0.16
515.56	0.16
515.91	0.15
516.261	0.16
516.611	0.15
516.962	0.16
517.312	0.16
517.662	0.16
518.013	0.16
518.363	0.16
518.713	0.15
519.063	0.16
519.413	0.15
519.763	0.16
520.113	0.16
520.463	0.16
520.813	0.16
521.163	0.16
521.512	0.16
521.862	0.15
522.212	0.16
522.562	0.16
522.911	0.16
523.261	0.16
523.61	0.16
523.96	0.16
524.309	0.16
524.658	0.16
525.008	0.16
525.357	0.15
525.706	0.16
526.056	0.15
526.405	0.16
526.754	0.16
527.103	0.16
527.452	0.16
527.801	0.16
528.15	0.16
528.499	0.16
528.847	0.16
529.196	0.16
529.545	0.16
529.893	0.16
530.242	0.16
530.591	0.17
530.939	0.17
531.288	0.16
531.636	0.17
531.985	0.17
532.333	0.16
532.681	0.17
533.029	0.17
533.378	0.16
533.726	0.16
534.074	0.17
534.422	0.16
534.77	0.17
535.118	0.16
535.466	0.17
535.814	0.17
536.162	0.17
536.509	0.17
536.857	0.16
537.205	0.17
537.552	0.17
537.9	0.17
538.248	0.17
538.595	0.17
538.943	0.18
539.29	0.16
539.637	0.17
539.985	0.17
540.332	0.17
540.679	0.17
541.026	0.16
541.373	0.17
541.721	0.16
542.068	0.17
542.415	0.16
542.762	0.16
543.108	0.16
543.455	0.16
543.802	0.16
544.149	0.15
544.496	0.16
544.842	0.16
545.189	0.15
545.535	0.16
545.882	0.16
546.228	0.16
546.575	0.15
546.921	0.15
547.267	0.15
547.614	0.15
547.96	0.16
548.306	0.16
548.652	0.15
548.998	0.17
549.344	0.15
549.69	0.16
550.036	0.16
550.382	0.17
550.728	0.16
551.074	0.16
551.42	0.16
551.765	0.17
552.111	0.17
552.457	0.17
552.802	0.16
553.148	0.16
553.493	0.16
553.839	0.17
554.184	0.16
554.529	0.16
554.875	0.17
555.22	0.16
555.565	0.17
555.91	0.16
556.255	0.17
556.6	0.17
556.945	0.16
557.29	0.16
557.635	0.18
557.98	0.16
558.325	0.17
558.67	0.17
559.014	0.17
559.359	0.17
559.704	0.17
560.048	0.16
560.393	0.17
560.737	0.16
561.082	0.17
561.426	0.16
561.77	0.17
562.115	0.17
562.459	0.16
562.803	0.16
563.147	0.17
563.491	0.17
563.835	0.17
564.179	0.16
564.523	0.16
564.867	0.16
565.211	0.16
565.555	0.17
565.899	0.17
566.242	0.17
566.586	0.16
566.93	0.16
567.273	0.17
567.617	0.17
567.96	0.17
568.304	0.18
568.647	0.16
568.99	0.17
569.334	0.18
569.677	0.16
570.02	0.18
570.363	0.17
570.706	0.17
571.049	0.17
571.392	0.17
571.735	0.16
572.078	0.17
572.421	0.17
572.764	0.16
573.106	0.17
573.449	0.16
573.792	0.16
574.134	0.16
574.477	0.17
574.819	0.17
575.162	0.16
575.504	0.17
575.847	0.17
576.189	0.16
576.531	0.17
576.873	0.17
577.215	0.17
577.558	0.17
577.9	0.16
578.242	0.17
578.584	0.17
578.926	0.16
579.267	0.16
579.609	0.17
579.951	0.17
580.293	0.17
580.634	0.17
580.976	0.17
581.318	0.17
581.659	0.17
582.001	0.17
582.342	0.17
582.683	0.17
583.025	0.16
583.366	0.16
583.707	0.17
584.049	0.16
584.39	0.17
584.731	0.16
585.072	0.16
585.413	0.17
585.754	0.16
586.095	0.17
586.435	0.16
586.776	0.17
587.117	0.16
587.458	0.16
587.798	0.17
588.139	0.17
588.48	0.16
588.82	0.16
589.161	0.16
589.501	0.16
589.841	0.16
590.182	0.16
590.522	0.16
590.862	0.16
591.202	0.17
591.542	0.16
591.882	0.16
592.222	0.16
592.562	0.16
592.902	0.16
593.242	0.15
593.582	0.17
593.922	0.16
594.261	0.16
594.601	0.16
594.941	0.17
595.28	0.16
595.62	0.17
595.959	0.16
596.299	0.16
596.638	0.16
596.977	0.17
597.317	0.17
597.656	0.16
597.995	0.17
598.334	0.17
598.673	0.16
599.012	0.16
599.351	0.17
599.69	0.16
600.029	0.16
600.368	0.17
600.707	0.17
601.046	0.17
601.384	0.17
601.723	0.16
602.061	0.16
602.4	0.17
602.738	0.16
603.077	0.16
603.415	0.16
603.754	0.17
604.092	0.16
604.43	0.16
604.768	0.17
605.107	0.16
605.445	0.16
605.783	0.16
606.121	0.16
606.459	0.16
606.796	0.16
607.134	0.16
607.472	0.15
607.81	0.16
608.148	0.15
608.485	0.16
608.823	0.16
609.16	0.16
609.498	0.16
609.835	0.16
610.173	0.16
610.51	0.17
610.847	0.16
611.185	0.16
611.522	0.16
611.859	0.16
612.196	0.17
612.533	0.17
612.87	0.17
613.207	0.17
613.544	0.16
613.881	0.17
614.217	0.17
614.554	0.16
614.891	0.17
615.228	0.17
615.564	0.16
615.901	0.17
616.237	0.16
616.574	0.16
616.91	0.17
617.246	0.17
617.583	0.17
617.919	0.17
618.255	0.17
618.591	0.16
618.927	0.17
619.263	0.17
619.599	0.17
619.935	0.17
620.271	0.17
620.607	0.17
620.943	0.16
621.279	0.17
621.614	0.16
621.95	0.17
622.286	0.16
622.621	0.16
622.957	0.16
623.292	0.16
623.627	0.15
623.963	0.15
624.298	0.15
624.633	0.15
624.968	0.15
625.304	0.15
625.639	0.15
625.974	0.15
626.309	0.15
626.644	0.15
626.979	0.16
627.313	0.15
627.648	0.15
627.983	0.15
628.318	0.15
628.652	0.15
628.987	0.15
629.321	0.15
629.656	0.14
629.99	0.14
630.325	0.14
630.659	0.15
630.993	0.14
631.327	0.14
631.662	0.14
631.996	0.15
632.33	0.15
632.664	0.15
632.998	0.14
633.332	0.14
633.666	0.14
633.999	0.14
634.333	0.14
634.667	0.14
635.001	0.14
635.334	0.14
635.668	0.14
636.001	0.13
636.335	0.14
636.668	0.14
637.001	0.14
637.335	0.14
637.668	0.14
638.001	0.14
638.334	0.13
638.668	0.13
639.001	0.14
639.334	0.13
639.667	0.13
639.999	0.13
640.332	0.14
640.665	0.13
640.998	0.13
641.331	0.13
641.663	0.13
641.996	0.14
642.328	0.14
642.661	0.13
642.993	0.13
643.326	0.13
643.658	0.13
643.99	0.12
644.323	0.13
644.655	0.13
644.987	0.13
645.319	0.14
645.651	0.13
645.983	0.13
646.315	0.13
646.647	0.13
646.979	0.14
647.31	0.14
647.642	0.13
647.974	0.13
648.305	0.14
648.637	0.13
648.968	0.13
649.3	0.14
649.631	0.14
649.963	0.13
650.294	0.14
650.625	0.13
650.957	0.14
651.288	0.14
651.619	0.14
651.95	0.14
652.281	0.14
652.612	0.13
652.943	0.14
653.274	0.15
653.604	0.13
653.935	0.13
654.266	0.13
654.596	0.13
654.927	0.13
655.258	0.14
655.588	0.14
655.918	0.13
656.249	0.12
656.579	0.13
656.909	0.13
657.24	0.13
657.57	0.14
657.9	0.13
658.23	0.13
658.56	0.14
658.89	0.14
659.22	0.13
659.55	0.13
659.88	0.14
660.209	0.13
660.539	0.14
660.869	0.14
661.198	0.14
661.528	0.14
661.857	0.13
662.187	0.14
662.516	0.14
662.846	0.14
663.175	0.14
663.504	0.14
663.833	0.13
664.163	0.13
664.492	0.13
664.821	0.13
665.15	0.13
665.479	0.13
665.807	0.13
666.136	0.13
666.465	0.12
666.794	0.13
667.122	0.12
667.451	0.13
667.78	0.12
668.108	0.12
668.437	0.13
668.765	0.13
669.093	0.13
669.422	0.12
669.75	0.12
670.078	0.12
670.406	0.12
670.734	0.12
671.062	0.12
671.39	0.12
671.718	0.12
672.046	0.12
672.374	0.12
672.702	0.12
673.029	0.11
673.357	0.13
673.685	0.13
674.012	0.13
674.34	0.12
674.667	0.12
674.995	0.12
675.322	0.12
675.649	0.12
675.977	0.13
676.304	0.12
676.631	0.12
676.958	0.12
677.285	0.11
677.612	0.12
677.939	0.13
678.266	0.12
678.593	0.12
678.92	0.13
679.246	0.12
679.573	0.12
679.9	0.12
680.226	0.12
680.553	0.12
680.879	0.12
681.206	0.12
681.532	0.11
681.858	0.12
682.184	0.11
682.511	0.12
682.837	0.11
683.163	0.11
683.489	0.12
683.815	0.11
684.141	0.11
684.467	0.11
684.793	0.1
685.118	0.11
685.444	0.12
685.77	0.11
686.095	0.11
686.421	0.11
686.746	0.11
687.072	0.11
687.397	0.11
687.723	0.12
688.048	0.11
688.373	0.11
688.698	0.12
689.023	0.11
689.349	0.12
689.674	0.12
689.999	0.12
690.323	0.11
690.648	0.11
690.973	0.1
691.298	0.11
691.623	0.1
691.947	0.11
692.272	0.11
692.596	0.11
692.921	0.11
693.245	0.11
693.57	0.11
693.894	0.11
694.218	0.11
694.543	0.11
694.867	0.11
695.191	0.11
695.515	0.11
695.839	0.1
696.163	0.1
696.487	0.1
696.811	0.1
697.135	0.11
697.458	0.11
697.782	0.1
698.106	0.1
698.429	0.1
698.753	0.1
699.076	0.1
699.4	0.1
699.723	0.11
700.046	0.09
700.37	0.1
700.693	0.11
701.016	0.1
701.339	0.1
701.662	0.11
701.985	0.1
702.308	0.09
702.631	0.1
702.954	0.11
703.277	0.1
703.599	0.11
703.922	0.09
704.245	0.09
704.567	0.09
704.89	0.09
705.212	0.09
705.535	0.09
705.857	0.08
706.179	0.08
706.502	0.08
706.824	0.09
707.146	0.08
707.468	0.09
707.79	0.09
708.112	0.09
708.434	0.1
708.756	0.09
709.078	0.09
709.399	0.09
709.721	0.08
710.043	0.09
710.364	0.09
710.686	0.1
711.007	0.09
711.329	0.1
711.65	0.09
711.972	0.09
712.293	0.1
712.614	0.09
712.935	0.1
713.256	0.09
713.577	0.1
713.898	0.09
714.219	0.09
714.54	0.09
714.861	0.09
715.182	0.09
715.503	0.09
715.823	0.08
716.144	0.09
716.464	0.07
716.785	0.08
717.105	0.08
717.426	0.08
717.746	0.08
718.066	0.07
718.387	0.07
718.707	0.07
719.027	0.08
719.347	0.07
719.667	0.08
719.987	0.07
720.307	0.07
720.627	0.07
720.947	0.07
721.266	0.08
721.586	0.07
721.906	0.08
722.225	0.07
722.545	0.07
722.864	0.07
723.184	0.08
723.503	0.07
723.823	0.08
