Data from 12-12-AQDScycling_Absorbance__1002__01002.txt Node

Date: Tue Dec 12 15:07:14 EST 2023
User: kyuminlee
Spectrometer: FLMS00943
Trigger mode: 0
Integration Time (sec): 1.000000E-1
Scans to average: 1
Electric dark correction enabled: true
Nonlinearity correction enabled: false
Boxcar width: 0
XAxis mode: Wavelengths
Number of Pixels in Spectrum: 2048
>>>>>Begin Spectral Data<<<<<
179.651	-0
180.037	-0
180.424	-0
180.81	-0.25
181.197	0.06
181.583	-0
181.97	-0.29
182.356	0.39
182.743	-1.09
183.129	-0.2
183.515	-0
183.901	-2.59
184.288	-0.02
184.674	-0
185.06	-0.74
185.446	-0.18
185.832	-1.34
186.218	0.83
186.604	-0
186.99	-0.45
187.376	0.54
187.762	-0.02
188.148	0.64
188.534	-0.05
188.92	0.07
189.305	0.1
189.691	0.08
190.077	0.15
190.463	0.09
190.848	0.07
191.234	-0.06
191.619	0.13
192.005	0.12
192.391	0.1
192.776	0.23
193.161	0.47
193.547	0.1
193.932	0.02
194.318	0.02
194.703	0.21
195.088	0.3
195.473	0.07
195.859	0.22
196.244	0.23
196.629	0.06
197.014	0.15
197.399	0.17
197.784	0.2
198.169	0.17
198.554	0.09
198.939	0.07
199.324	0.15
199.709	0.11
200.094	0.17
200.478	0.17
200.863	0.2
201.248	0.2
201.633	0.17
202.017	0.08
202.402	0.41
202.787	0.03
203.171	0.18
203.556	0.2
203.94	0.1
204.325	0.26
204.709	0.13
205.093	0.14
205.478	0.15
205.862	-0.01
206.246	0.19
206.631	0.2
207.015	0.2
207.399	0.19
207.783	0.28
208.167	0.22
208.551	0.21
208.935	0.17
209.319	0.12
209.703	0.13
210.087	0.31
210.471	0.12
210.855	0.13
211.239	0.37
211.623	0.41
212.007	0.23
212.39	0.28
212.774	0.16
213.158	0.03
213.541	0.26
213.925	0.27
214.309	0.22
214.692	0.25
215.076	0.3
215.459	0.13
215.842	0.15
216.226	0.35
216.609	0.35
216.993	0.18
217.376	0.72
217.759	0.18
218.142	0.48
218.525	0.54
218.909	0.29
219.292	0.31
219.675	0.65
220.058	0.49
220.441	0.53
220.824	0.45
221.207	0.63
221.59	0.54
221.973	0.53
222.355	0.56
222.738	0.81
223.121	0.61
223.504	0.56
223.886	0.82
224.269	0.63
224.652	0.64
225.034	0.79
225.417	0.76
225.799	0.78
226.182	1.08
226.564	0.73
226.947	0.85
227.329	0.8
227.711	0.87
228.094	1.13
228.476	1.02
228.858	0.84
229.24	0.91
229.623	0.94
230.005	0.97
230.387	0.87
230.769	1.01
231.151	1.07
231.533	0.92
231.915	0.95
232.297	1.12
232.679	1.02
233.061	1.07
233.442	1.11
233.824	1.17
234.206	1.07
234.588	1.13
234.969	0.98
235.351	1.18
235.733	1.13
236.114	1.13
236.496	1.08
236.877	1.21
237.259	1.14
237.64	1.17
238.022	1.02
238.403	0.98
238.784	1.02
239.165	1.02
239.547	0.98
239.928	1.15
240.309	0.93
240.69	0.94
241.071	1.03
241.452	1.11
241.834	1.04
242.215	1.08
242.595	1.18
242.976	1.1
243.357	1.13
243.738	1.05
244.119	1.25
244.5	1.06
244.881	1.34
245.261	1.27
245.642	1.21
246.023	1.14
246.403	1.21
246.784	1.38
247.164	1.32
247.545	1.26
247.925	1.2
248.306	1.12
248.686	1.31
249.067	1.25
249.447	1.48
249.827	1.68
250.207	1.41
250.588	1.26
250.968	1.65
251.348	1.35
251.728	1.48
252.108	1.46
252.488	1.26
252.868	1.39
253.248	1.34
253.628	1.43
254.008	1.48
254.388	1.27
254.768	1.3
255.147	1.42
255.527	1.51
255.907	1.37
256.287	1.44
256.666	1.41
257.046	1.48
257.425	1.47
257.805	1.33
258.184	1.34
258.564	1.34
258.943	1.42
259.323	1.45
259.702	1.52
260.081	1.54
260.461	1.53
260.84	1.58
261.219	1.69
261.598	1.5
261.977	1.71
262.356	1.57
262.736	1.54
263.115	1.5
263.494	1.38
263.873	1.46
264.251	1.45
264.63	1.61
265.009	1.25
265.388	1.32
265.767	1.35
266.145	1.55
266.524	1.41
266.903	1.51
267.281	1.33
267.66	1.64
268.039	1.48
268.417	1.44
268.796	1.37
269.174	1.46
269.552	1.34
269.931	1.54
270.309	1.66
270.687	1.6
271.066	1.65
271.444	1.39
271.822	1.59
272.2	1.44
272.578	1.5
272.956	1.39
273.334	1.47
273.712	1.48
274.09	1.4
274.468	1.53
274.846	1.29
275.224	1.51
275.602	1.8
275.98	1.6
276.357	1.52
276.735	1.56
277.113	1.48
277.49	1.35
277.868	1.34
278.246	1.5
278.623	1.41
279.001	1.25
279.378	1.44
279.756	1.47
280.133	1.54
280.51	1.46
280.888	1.5
281.265	1.41
281.642	1.43
282.019	1.58
282.396	1.67
282.773	1.4
283.151	1.61
283.528	1.52
283.905	1.44
284.282	1.47
284.659	1.74
285.035	1.34
285.412	1.44
285.789	1.58
286.166	1.59
286.543	1.49
286.919	1.59
287.296	1.41
287.673	1.68
288.049	1.51
288.426	1.67
288.802	1.48
289.179	1.57
289.555	1.65
289.932	1.52
290.308	1.34
290.684	1.47
291.061	1.43
291.437	1.58
291.813	1.39
292.189	1.44
292.565	1.39
292.942	1.31
293.318	1.45
293.694	1.46
294.07	1.39
294.446	1.4
294.822	1.55
295.197	1.52
295.573	1.4
295.949	1.46
296.325	1.45
296.701	1.51
297.076	1.61
297.452	1.79
297.828	1.41
298.203	1.67
298.579	1.45
298.954	1.44
299.33	1.39
299.705	1.51
300.081	1.7
300.456	1.54
300.831	1.43
301.206	1.48
301.582	1.58
301.957	1.48
302.332	1.51
302.707	1.41
303.082	1.51
303.457	1.53
303.832	1.46
304.207	1.4
304.582	1.48
304.957	1.43
305.332	1.55
305.707	1.64
306.082	1.54
306.456	1.59
306.831	1.6
307.206	1.52
307.58	1.6
307.955	1.45
308.33	1.47
308.704	1.48
309.079	1.47
309.453	1.63
309.828	1.56
310.202	1.51
310.576	1.6
310.951	1.53
311.325	1.55
311.699	1.48
312.073	1.44
312.447	1.58
312.821	1.39
313.196	1.66
313.57	1.47
313.944	1.46
314.317	1.39
314.691	1.58
315.065	1.47
315.439	1.56
315.813	1.51
316.187	1.54
316.56	1.8
316.934	1.72
317.308	1.39
317.681	1.5
318.055	1.51
318.428	1.58
318.802	1.53
319.175	1.58
319.549	1.55
319.922	1.36
320.295	1.5
320.669	1.64
321.042	1.45
321.415	1.61
321.788	1.55
322.162	1.46
322.535	1.42
322.908	1.91
323.281	1.43
323.654	1.68
324.027	1.41
324.4	1.78
324.773	1.64
325.145	1.65
325.518	1.55
325.891	1.46
326.264	1.55
326.636	1.48
327.009	1.43
327.382	1.52
327.754	1.64
328.127	1.46
328.499	1.47
328.872	1.53
329.244	1.62
329.616	1.52
329.989	1.56
330.361	1.42
330.733	1.62
331.106	1.45
331.478	1.69
331.85	1.46
332.222	1.44
332.594	1.67
332.966	1.51
333.338	1.65
333.71	1.7
334.082	1.54
334.454	1.47
334.826	1.71
335.197	1.54
335.569	1.54
335.941	1.48
336.312	1.5
336.684	1.41
337.056	1.42
337.427	1.6
337.799	1.62
338.17	1.53
338.542	1.45
338.913	1.62
339.284	1.59
339.656	1.54
340.027	1.46
340.398	1.63
340.769	1.54
341.141	1.7
341.512	1.55
341.883	1.55
342.254	1.62
342.625	1.48
342.996	1.59
343.367	1.45
343.738	1.56
344.108	1.41
344.479	1.74
344.85	1.39
345.221	1.59
345.591	1.58
345.962	1.46
346.333	1.38
346.703	1.35
347.074	1.59
347.444	1.35
347.815	1.51
348.185	1.43
348.556	1.43
348.926	1.38
349.296	1.53
349.666	1.35
350.037	1.33
350.407	1.37
350.777	1.43
351.147	1.33
351.517	1.46
351.887	1.34
352.257	1.42
352.627	1.34
352.997	1.33
353.367	1.4
353.737	1.39
354.106	1.34
354.476	1.39
354.846	1.45
355.216	1.45
355.585	1.4
355.955	1.31
356.324	1.31
356.694	1.35
357.063	1.25
357.433	1.31
357.802	1.26
358.171	1.36
358.541	1.28
358.91	1.3
359.279	1.35
359.648	1.3
360.017	1.29
360.387	1.29
360.756	1.22
361.125	1.26
361.494	1.21
361.863	1.22
362.231	1.14
362.6	1.2
362.969	1.23
363.338	1.13
363.707	1.26
364.075	1.17
364.444	1.1
364.813	1.16
365.181	1.1
365.55	1.12
365.918	1.12
366.287	1.14
366.655	1.12
367.024	1.09
367.392	1.12
367.76	1.09
368.128	1.08
368.497	1.05
368.865	1.06
369.233	1.04
369.601	1.04
369.969	1.04
370.337	1.05
370.705	1.02
371.073	1.02
371.441	1.02
371.809	1.01
372.177	1.02
372.544	1.01
372.912	1.02
373.28	1.07
373.647	1.06
374.015	1.03
374.383	1.06
374.75	1.06
375.118	1.01
375.485	1.04
375.853	1.04
376.22	1
376.587	1.03
376.955	1.06
377.322	1.06
377.689	1.01
378.056	1.05
378.423	1
378.79	1.04
379.157	1.02
379.524	1.06
379.891	1.03
380.258	1.07
380.625	1.03
380.992	1.02
381.359	1.05
381.726	1.08
382.092	1.04
382.459	1.05
382.826	1.12
383.192	1.07
383.559	1.07
383.925	1.11
384.292	1.08
384.658	1.09
385.025	1.14
385.391	1.11
385.757	1.09
386.123	1.14
386.49	1.13
386.856	1.19
387.222	1.17
387.588	1.14
387.954	1.2
388.32	1.15
388.686	1.17
389.052	1.12
389.418	1.2
389.784	1.12
390.15	1.18
390.515	1.07
390.881	1.15
391.247	1.12
391.613	1.17
391.978	1.12
392.344	1.18
392.709	1.14
393.075	1.16
393.44	1.22
393.806	1.14
394.171	1.11
394.536	1.14
394.902	1.11
395.267	1.09
395.632	1.1
395.997	1.12
396.362	1.16
396.727	1.17
397.092	1.06
397.457	1.1
397.822	1.14
398.187	1.11
398.552	1.08
398.917	1.13
399.282	1.04
399.646	1.07
400.011	1.11
400.376	1.06
400.74	1.04
401.105	1.03
401.47	1.03
401.834	1.05
402.199	1.02
402.563	1.02
402.927	1.01
403.292	1.05
403.656	1.02
404.02	1.03
404.384	1.02
404.749	0.99
405.113	1
405.477	0.98
405.841	0.96
406.205	0.98
406.569	0.96
406.933	0.91
407.296	0.91
407.66	0.93
408.024	0.91
408.388	0.91
408.752	0.9
409.115	0.94
409.479	0.9
409.842	0.91
410.206	0.84
410.569	0.87
410.933	0.87
411.296	0.84
411.66	0.9
412.023	0.87
412.386	0.88
412.749	0.83
413.113	0.84
413.476	0.84
413.839	0.84
414.202	0.82
414.565	0.78
414.928	0.81
415.291	0.78
415.654	0.79
416.017	0.81
416.38	0.8
416.742	0.77
417.105	0.8
417.468	0.81
417.83	0.8
418.193	0.8
418.556	0.8
418.918	0.77
419.281	0.79
419.643	0.8
420.005	0.79
420.368	0.79
420.73	0.75
421.092	0.78
421.455	0.76
421.817	0.74
422.179	0.77
422.541	0.74
422.903	0.77
423.265	0.76
423.627	0.73
423.989	0.79
424.351	0.76
424.713	0.76
425.075	0.73
425.436	0.73
425.798	0.71
426.16	0.75
426.521	0.72
426.883	0.75
427.245	0.74
427.606	0.73
427.967	0.7
428.329	0.7
428.69	0.75
429.052	0.72
429.413	0.72
429.774	0.71
430.135	0.71
430.497	0.72
430.858	0.72
431.219	0.7
431.58	0.67
431.941	0.71
432.302	0.68
432.663	0.68
433.024	0.71
433.384	0.67
433.745	0.67
434.106	0.67
434.467	0.69
434.827	0.68
435.188	0.68
435.548	0.7
435.909	0.66
436.269	0.68
436.63	0.65
436.99	0.66
437.351	0.65
437.711	0.67
438.071	0.65
438.431	0.63
438.792	0.63
439.152	0.64
439.512	0.62
439.872	0.63
440.232	0.65
440.592	0.65
440.952	0.65
441.312	0.62
441.671	0.62
442.031	0.61
442.391	0.62
442.751	0.62
443.11	0.59
443.47	0.61
443.83	0.6
444.189	0.6
444.549	0.58
444.908	0.59
445.267	0.58
445.627	0.57
445.986	0.57
446.345	0.57
446.705	0.57
447.064	0.57
447.423	0.55
447.782	0.56
448.141	0.56
448.5	0.54
448.859	0.57
449.218	0.54
449.577	0.55
449.936	0.56
450.295	0.55
450.653	0.54
451.012	0.54
451.371	0.55
451.729	0.53
452.088	0.54
452.447	0.53
452.805	0.53
453.163	0.52
453.522	0.53
453.88	0.5
454.239	0.52
454.597	0.5
454.955	0.5
455.313	0.5
455.671	0.5
456.029	0.49
456.388	0.48
456.746	0.48
457.104	0.47
457.461	0.46
457.819	0.47
458.177	0.46
458.535	0.45
458.893	0.45
459.25	0.45
459.608	0.45
459.966	0.43
460.323	0.43
460.681	0.43
461.038	0.44
461.396	0.41
461.753	0.41
462.111	0.42
462.468	0.39
462.825	0.4
463.182	0.41
463.54	0.39
463.897	0.4
464.254	0.38
464.611	0.39
464.968	0.38
465.325	0.38
465.682	0.37
466.039	0.37
466.395	0.36
466.752	0.36
467.109	0.36
467.466	0.36
467.822	0.35
468.179	0.34
468.535	0.35
468.892	0.34
469.248	0.34
469.605	0.33
469.961	0.33
470.318	0.33
470.674	0.33
471.03	0.32
471.386	0.32
471.743	0.3
472.099	0.31
472.455	0.31
472.811	0.3
473.167	0.3
473.523	0.29
473.879	0.29
474.235	0.29
474.59	0.29
474.946	0.28
475.302	0.28
475.657	0.27
476.013	0.27
476.369	0.27
476.724	0.28
477.08	0.27
477.435	0.26
477.791	0.26
478.146	0.26
478.501	0.26
478.857	0.25
479.212	0.26
479.567	0.24
479.922	0.24
480.277	0.23
480.632	0.23
480.987	0.23
481.342	0.23
481.697	0.22
482.052	0.22
482.407	0.22
482.762	0.21
483.116	0.21
483.471	0.22
483.826	0.2
484.18	0.2
484.535	0.2
484.89	0.2
485.244	0.2
485.598	0.2
485.953	0.2
486.307	0.19
486.661	0.2
487.016	0.19
487.37	0.19
487.724	0.19
488.078	0.18
488.432	0.18
488.786	0.19
489.14	0.18
489.494	0.18
489.848	0.17
490.202	0.17
490.556	0.17
490.91	0.17
491.263	0.17
491.617	0.17
491.971	0.17
492.324	0.16
492.678	0.17
493.031	0.17
493.385	0.16
493.738	0.16
494.091	0.17
494.445	0.16
494.798	0.16
495.151	0.16
495.504	0.16
495.857	0.16
496.21	0.16
496.564	0.16
496.916	0.16
497.269	0.16
497.622	0.15
497.975	0.15
498.328	0.15
498.681	0.15
499.033	0.15
499.386	0.14
499.739	0.14
500.091	0.14
500.444	0.14
500.796	0.14
501.149	0.14
501.501	0.14
501.854	0.14
502.206	0.14
502.558	0.14
502.91	0.14
503.263	0.14
503.615	0.14
503.967	0.13
504.319	0.14
504.671	0.13
505.023	0.13
505.375	0.12
505.726	0.13
506.078	0.13
506.43	0.13
506.782	0.13
507.133	0.13
507.485	0.14
507.837	0.15
508.188	0.14
508.54	0.14
508.891	0.15
509.243	0.14
509.594	0.14
509.945	0.14
510.296	0.13
510.648	0.14
510.999	0.13
511.35	0.14
511.701	0.13
512.052	0.14
512.403	0.14
512.754	0.13
513.105	0.13
513.456	0.13
513.807	0.13
514.157	0.13
514.508	0.14
514.859	0.13
515.209	0.13
515.56	0.14
515.91	0.13
516.261	0.14
516.611	0.13
516.962	0.13
517.312	0.13
517.662	0.13
518.013	0.14
518.363	0.14
518.713	0.14
519.063	0.13
519.413	0.13
519.763	0.14
520.113	0.14
520.463	0.14
520.813	0.14
521.163	0.14
521.512	0.13
521.862	0.13
522.212	0.14
522.562	0.14
522.911	0.13
523.261	0.13
523.61	0.14
523.96	0.14
524.309	0.13
524.658	0.14
525.008	0.13
525.357	0.14
525.706	0.14
526.056	0.13
526.405	0.14
526.754	0.14
527.103	0.13
527.452	0.13
527.801	0.14
528.15	0.14
528.499	0.14
528.847	0.14
529.196	0.14
529.545	0.15
529.893	0.14
530.242	0.14
530.591	0.14
530.939	0.15
531.288	0.15
531.636	0.15
531.985	0.15
532.333	0.14
532.681	0.14
533.029	0.14
533.378	0.14
533.726	0.14
534.074	0.15
534.422	0.14
534.77	0.15
535.118	0.14
535.466	0.14
535.814	0.14
536.162	0.14
536.509	0.14
536.857	0.14
537.205	0.15
537.552	0.15
537.9	0.14
538.248	0.14
538.595	0.15
538.943	0.15
539.29	0.14
539.637	0.14
539.985	0.15
540.332	0.14
540.679	0.15
541.026	0.14
541.373	0.15
541.721	0.14
542.068	0.14
542.415	0.14
542.762	0.15
543.108	0.14
543.455	0.14
543.802	0.14
544.149	0.14
544.496	0.15
544.842	0.15
545.189	0.13
545.535	0.14
545.882	0.15
546.228	0.14
546.575	0.13
546.921	0.13
547.267	0.14
547.614	0.14
547.96	0.14
548.306	0.13
548.652	0.14
548.998	0.13
549.344	0.14
549.69	0.14
550.036	0.13
550.382	0.14
550.728	0.14
551.074	0.15
551.42	0.14
551.765	0.15
552.111	0.15
552.457	0.15
552.802	0.15
553.148	0.14
553.493	0.14
553.839	0.15
554.184	0.14
554.529	0.14
554.875	0.14
555.22	0.15
555.565	0.15
555.91	0.14
556.255	0.15
556.6	0.15
556.945	0.14
557.29	0.14
557.635	0.15
557.98	0.14
558.325	0.14
558.67	0.15
559.014	0.15
559.359	0.15
559.704	0.15
560.048	0.14
560.393	0.14
560.737	0.14
561.082	0.14
561.426	0.13
561.77	0.14
562.115	0.13
562.459	0.14
562.803	0.14
563.147	0.14
563.491	0.14
563.835	0.14
564.179	0.15
564.523	0.14
564.867	0.14
565.211	0.14
565.555	0.14
565.899	0.15
566.242	0.14
566.586	0.14
566.93	0.14
567.273	0.15
567.617	0.15
567.96	0.15
568.304	0.15
568.647	0.14
568.99	0.15
569.334	0.16
569.677	0.14
570.02	0.16
570.363	0.16
570.706	0.14
571.049	0.15
571.392	0.16
571.735	0.14
572.078	0.15
572.421	0.16
572.764	0.15
573.106	0.15
573.449	0.14
573.792	0.15
574.134	0.15
574.477	0.15
574.819	0.15
575.162	0.15
575.504	0.14
575.847	0.15
576.189	0.14
576.531	0.14
576.873	0.14
577.215	0.14
577.558	0.15
577.9	0.14
578.242	0.14
578.584	0.14
578.926	0.14
579.267	0.15
579.609	0.15
579.951	0.14
580.293	0.14
580.634	0.14
580.976	0.15
581.318	0.14
581.659	0.14
582.001	0.15
582.342	0.15
582.683	0.15
583.025	0.14
583.366	0.15
583.707	0.15
584.049	0.15
584.39	0.15
584.731	0.14
585.072	0.14
585.413	0.15
585.754	0.15
586.095	0.15
586.435	0.15
586.776	0.15
587.117	0.14
587.458	0.14
587.798	0.14
588.139	0.15
588.48	0.14
588.82	0.14
589.161	0.14
589.501	0.14
589.841	0.14
590.182	0.14
590.522	0.13
590.862	0.14
591.202	0.13
591.542	0.14
591.882	0.14
592.222	0.14
592.562	0.14
592.902	0.14
593.242	0.13
593.582	0.14
593.922	0.15
594.261	0.14
594.601	0.14
594.941	0.14
595.28	0.14
595.62	0.15
595.959	0.14
596.299	0.14
596.638	0.14
596.977	0.15
597.317	0.14
597.656	0.14
597.995	0.14
598.334	0.15
598.673	0.14
599.012	0.14
599.351	0.15
599.69	0.14
600.029	0.15
600.368	0.16
600.707	0.15
601.046	0.15
601.384	0.15
601.723	0.16
602.061	0.15
602.4	0.14
602.738	0.15
603.077	0.15
603.415	0.14
603.754	0.14
604.092	0.15
604.43	0.14
604.768	0.14
605.107	0.15
605.445	0.14
605.783	0.14
606.121	0.14
606.459	0.14
606.796	0.15
607.134	0.13
607.472	0.14
607.81	0.14
608.148	0.14
608.485	0.15
608.823	0.14
609.16	0.14
609.498	0.14
609.835	0.14
610.173	0.14
610.51	0.14
610.847	0.14
611.185	0.14
611.522	0.15
611.859	0.15
612.196	0.15
612.533	0.15
612.87	0.14
613.207	0.15
613.544	0.14
613.881	0.16
614.217	0.14
614.554	0.14
614.891	0.15
615.228	0.15
615.564	0.15
615.901	0.15
616.237	0.16
616.574	0.15
616.91	0.15
617.246	0.14
617.583	0.15
617.919	0.16
618.255	0.16
618.591	0.16
618.927	0.15
619.263	0.16
619.599	0.15
619.935	0.15
620.271	0.16
620.607	0.15
620.943	0.15
621.279	0.15
621.614	0.15
621.95	0.16
622.286	0.15
622.621	0.14
622.957	0.15
623.292	0.15
623.627	0.14
623.963	0.14
624.298	0.14
624.633	0.14
624.968	0.14
625.304	0.14
625.639	0.14
625.974	0.14
626.309	0.14
626.644	0.14
626.979	0.14
627.313	0.14
627.648	0.14
627.983	0.15
628.318	0.14
628.652	0.14
628.987	0.13
629.321	0.14
629.656	0.13
629.99	0.13
630.325	0.13
630.659	0.13
630.993	0.13
631.327	0.13
631.662	0.12
631.996	0.12
632.33	0.13
632.664	0.13
632.998	0.12
633.332	0.13
633.666	0.13
633.999	0.13
634.333	0.13
634.667	0.13
635.001	0.12
635.334	0.12
635.668	0.12
636.001	0.12
636.335	0.12
636.668	0.12
637.001	0.12
637.335	0.13
637.668	0.12
638.001	0.12
638.334	0.12
638.668	0.12
639.001	0.12
639.334	0.12
639.667	0.12
639.999	0.12
640.332	0.12
640.665	0.12
640.998	0.12
641.331	0.12
641.663	0.12
641.996	0.12
642.328	0.13
642.661	0.13
642.993	0.12
643.326	0.13
643.658	0.12
643.99	0.12
644.323	0.12
644.655	0.12
644.987	0.13
645.319	0.13
645.651	0.13
645.983	0.13
646.315	0.13
646.647	0.14
646.979	0.13
647.31	0.14
647.642	0.13
647.974	0.13
648.305	0.14
648.637	0.14
648.968	0.13
649.3	0.13
649.631	0.13
649.963	0.13
650.294	0.13
650.625	0.12
650.957	0.13
651.288	0.13
651.619	0.13
651.95	0.13
652.281	0.13
652.612	0.13
652.943	0.13
653.274	0.13
653.604	0.12
653.935	0.13
654.266	0.13
654.596	0.12
654.927	0.13
655.258	0.13
655.588	0.13
655.918	0.13
656.249	0.11
656.579	0.12
656.909	0.12
657.24	0.12
657.57	0.12
657.9	0.12
658.23	0.12
658.56	0.13
658.89	0.12
659.22	0.11
659.55	0.12
659.88	0.12
660.209	0.12
660.539	0.13
660.869	0.13
661.198	0.13
661.528	0.12
661.857	0.12
662.187	0.13
662.516	0.12
662.846	0.12
663.175	0.12
663.504	0.13
663.833	0.12
664.163	0.12
664.492	0.12
664.821	0.12
665.15	0.12
665.479	0.11
665.807	0.11
666.136	0.12
666.465	0.11
666.794	0.12
667.122	0.13
667.451	0.12
667.78	0.12
668.108	0.12
668.437	0.12
668.765	0.12
669.093	0.13
669.422	0.12
669.75	0.12
670.078	0.12
670.406	0.13
670.734	0.13
671.062	0.13
671.39	0.12
671.718	0.12
672.046	0.12
672.374	0.12
672.702	0.12
673.029	0.12
673.357	0.13
673.685	0.12
674.012	0.12
674.34	0.12
674.667	0.13
674.995	0.12
675.322	0.13
675.649	0.11
675.977	0.12
676.304	0.12
676.631	0.12
676.958	0.12
677.285	0.11
677.612	0.11
677.939	0.12
678.266	0.12
678.593	0.12
678.92	0.12
679.246	0.11
679.573	0.11
679.9	0.12
680.226	0.11
680.553	0.11
680.879	0.11
681.206	0.12
681.532	0.11
681.858	0.12
682.184	0.11
682.511	0.12
682.837	0.11
683.163	0.12
683.489	0.12
683.815	0.11
684.141	0.11
684.467	0.11
684.793	0.11
685.118	0.12
685.444	0.12
685.77	0.11
686.095	0.11
686.421	0.11
686.746	0.11
687.072	0.12
687.397	0.1
687.723	0.12
688.048	0.11
688.373	0.11
688.698	0.1
689.023	0.1
689.349	0.1
689.674	0.1
689.999	0.1
690.323	0.1
690.648	0.09
690.973	0.09
691.298	0.1
691.623	0.1
691.947	0.1
692.272	0.1
692.596	0.1
692.921	0.11
693.245	0.11
693.57	0.1
693.894	0.1
694.218	0.1
694.543	0.11
694.867	0.1
695.191	0.1
695.515	0.1
695.839	0.09
696.163	0.1
696.487	0.11
696.811	0.1
697.135	0.1
697.458	0.11
697.782	0.1
698.106	0.1
698.429	0.11
698.753	0.1
699.076	0.1
699.4	0.11
699.723	0.1
700.046	0.1
700.37	0.11
700.693	0.11
701.016	0.1
701.339	0.11
701.662	0.11
701.985	0.1
702.308	0.1
702.631	0.1
702.954	0.1
703.277	0.1
703.599	0.1
703.922	0.09
704.245	0.08
704.567	0.09
704.89	0.09
705.212	0.1
705.535	0.08
705.857	0.09
706.179	0.09
706.502	0.09
706.824	0.08
707.146	0.08
707.468	0.1
707.79	0.09
708.112	0.09
708.434	0.08
708.756	0.08
709.078	0.09
709.399	0.09
709.721	0.09
710.043	0.09
710.364	0.09
710.686	0.09
711.007	0.09
711.329	0.09
711.65	0.09
711.972	0.09
712.293	0.1
712.614	0.09
712.935	0.09
713.256	0.09
713.577	0.1
713.898	0.09
714.219	0.1
714.54	0.09
714.861	0.09
715.182	0.09
715.503	0.09
715.823	0.09
716.144	0.09
716.464	0.09
716.785	0.09
717.105	0.09
717.426	0.09
717.746	0.09
718.066	0.08
718.387	0.09
718.707	0.08
719.027	0.09
719.347	0.08
719.667	0.09
719.987	0.08
720.307	0.08
720.627	0.08
720.947	0.08
721.266	0.08
721.586	0.07
721.906	0.08
722.225	0.07
722.545	0.07
722.864	0.08
723.184	0.08
723.503	0.08
