Data from 12-12-AQDScycling_Absorbance__161__00161.txt Node

Date: Tue Dec 12 11:39:01 EST 2023
User: kyuminlee
Spectrometer: FLMS00943
Trigger mode: 0
Integration Time (sec): 1.000000E-1
Scans to average: 1
Electric dark correction enabled: true
Nonlinearity correction enabled: false
Boxcar width: 0
XAxis mode: Wavelengths
Number of Pixels in Spectrum: 2048
>>>>>Begin Spectral Data<<<<<
179.651	-0
180.037	-0
180.424	-0
180.81	-0.3
181.197	0.2
181.583	-0
181.97	-0.51
182.356	-0
182.743	-0
183.129	0.07
183.515	0.85
183.901	-2.16
184.288	0.6
184.674	-0
185.06	-1.19
185.446	-0
185.832	-1.48
186.218	-0
186.604	-0
186.99	-0
187.376	-0
187.762	-0
188.148	0.62
188.534	0.34
188.92	0.1
189.305	0.08
189.691	0.23
190.077	0.12
190.463	0.13
190.848	0.22
191.234	0.02
191.619	0.01
192.005	0.13
192.391	0.11
192.776	0.13
193.161	0.13
193.547	0.13
193.932	0.1
194.318	0.05
194.703	0.19
195.088	0.25
195.473	0.23
195.859	0.13
196.244	0.15
196.629	0.22
197.014	0.07
197.399	0.19
197.784	0.09
198.169	0.27
198.554	0.24
198.939	0.11
199.324	0.12
199.709	0.05
200.094	0.03
200.478	0.06
200.863	0.22
201.248	0.17
201.633	0.17
202.017	0.06
202.402	0.21
202.787	0.04
203.171	-0
203.556	0.25
203.94	0.17
204.325	0.3
204.709	0.16
205.093	0.07
205.478	0.06
205.862	0.15
206.246	0.19
206.631	0.14
207.015	0.18
207.399	0.08
207.783	0.17
208.167	0.25
208.551	0.19
208.935	0.07
209.319	0.14
209.703	0.21
210.087	0.32
210.471	0.13
210.855	0.05
211.239	0.17
211.623	0.26
212.007	0.54
212.39	0.33
212.774	0.18
213.158	0.05
213.541	0.25
213.925	0.15
214.309	0.35
214.692	0.26
215.076	0.32
215.459	0.14
215.842	0.2
216.226	0.22
216.609	0.25
216.993	0.25
217.376	0.44
217.759	0.24
218.142	0.27
218.525	0.6
218.909	0.35
219.292	0.34
219.675	0.36
220.058	0.4
220.441	0.49
220.824	0.45
221.207	0.56
221.59	0.45
221.973	0.5
222.355	0.51
222.738	0.78
223.121	0.73
223.504	0.61
223.886	0.76
224.269	0.77
224.652	0.6
225.034	0.85
225.417	0.68
225.799	0.72
226.182	0.7
226.564	0.92
226.947	0.76
227.329	0.9
227.711	0.97
228.094	0.93
228.476	0.97
228.858	0.82
229.24	0.8
229.623	0.89
230.005	0.86
230.387	0.9
230.769	0.81
231.151	0.99
231.533	1.08
231.915	0.91
232.297	0.96
232.679	0.97
233.061	1.03
233.442	1.01
233.824	0.91
234.206	1.09
234.588	1.2
234.969	1.05
235.351	0.95
235.733	0.96
236.114	1.29
236.496	1.02
236.877	1.01
237.259	1.02
237.64	0.94
238.022	1
238.403	1.12
238.784	0.96
239.165	0.99
239.547	1.08
239.928	1.1
240.309	1.07
240.69	1.09
241.071	1.15
241.452	1.07
241.834	1.01
242.215	0.95
242.595	1.04
242.976	1.19
243.357	1.1
243.738	1.03
244.119	1.28
244.5	1.17
244.881	1.27
245.261	1.15
245.642	1.08
246.023	1.15
246.403	1.08
246.784	1.32
247.164	1.29
247.545	1.26
247.925	1.22
248.306	1.17
248.686	1.36
249.067	1.25
249.447	1.28
249.827	1.4
250.207	1.57
250.588	1.23
250.968	1.5
251.348	1.36
251.728	1.43
252.108	1.24
252.488	1.38
252.868	1.26
253.248	1.34
253.628	1.39
254.008	1.49
254.388	1.24
254.768	1.25
255.147	1.37
255.527	1.36
255.907	1.29
256.287	1.34
256.666	1.41
257.046	1.46
257.425	1.46
257.805	1.28
258.184	1.36
258.564	1.39
258.943	1.46
259.323	1.57
259.702	1.37
260.081	1.31
260.461	1.46
260.84	1.36
261.219	1.63
261.598	1.49
261.977	1.45
262.356	1.43
262.736	1.49
263.115	1.55
263.494	1.41
263.873	1.35
264.251	1.39
264.63	1.52
265.009	1.41
265.388	1.37
265.767	1.29
266.145	1.35
266.524	1.34
266.903	1.46
267.281	1.49
267.66	1.48
268.039	1.55
268.417	1.45
268.796	1.3
269.174	1.43
269.552	1.35
269.931	1.52
270.309	1.4
270.687	1.54
271.066	1.64
271.444	1.37
271.822	1.41
272.2	1.51
272.578	1.35
272.956	1.39
273.334	1.47
273.712	1.39
274.09	1.53
274.468	1.41
274.846	1.25
275.224	1.47
275.602	1.37
275.98	1.42
276.357	1.47
276.735	1.59
277.113	1.47
277.49	1.33
277.868	1.3
278.246	1.49
278.623	1.21
279.001	1.28
279.378	1.39
279.756	1.34
280.133	1.66
280.51	1.34
280.888	1.46
281.265	1.38
281.642	1.41
282.019	1.56
282.396	1.46
282.773	1.44
283.151	1.41
283.528	1.57
283.905	1.45
284.282	1.5
284.659	1.48
285.035	1.38
285.412	1.29
285.789	1.44
286.166	1.46
286.543	1.49
286.919	1.72
287.296	1.38
287.673	1.7
288.049	1.64
288.426	1.77
288.802	1.44
289.179	1.55
289.555	1.67
289.932	1.51
290.308	1.34
290.684	1.38
291.061	1.45
291.437	1.8
291.813	1.45
292.189	1.27
292.565	1.31
292.942	1.28
293.318	1.43
293.694	1.5
294.07	1.44
294.446	1.37
294.822	1.51
295.197	1.38
295.573	1.53
295.949	1.43
296.325	1.43
296.701	1.47
297.076	1.39
297.452	1.53
297.828	1.57
298.203	1.61
298.579	1.45
298.954	1.47
299.33	1.36
299.705	1.38
300.081	1.36
300.456	1.37
300.831	1.33
301.206	1.32
301.582	1.42
301.957	1.34
302.332	1.34
302.707	1.35
303.082	1.24
303.457	1.34
303.832	1.34
304.207	1.27
304.582	1.2
304.957	1.31
305.332	1.32
305.707	1.22
306.082	1.25
306.456	1.27
306.831	1.26
307.206	1.18
307.58	1.27
307.955	1.19
308.33	1.15
308.704	1.19
309.079	1.11
309.453	1.25
309.828	1.15
310.202	1.13
310.576	1.13
310.951	1.17
311.325	1.2
311.699	1.11
312.073	1.1
312.447	1.12
312.821	1.11
313.196	1.11
313.57	1.02
313.944	1.09
314.317	1.04
314.691	1.11
315.065	1.1
315.439	1.12
315.813	1.14
316.187	1.08
316.56	1.18
316.934	1.11
317.308	1.03
317.681	1.09
318.055	1.06
318.428	1.12
318.802	1.12
319.175	1.09
319.549	1.11
319.922	1.08
320.295	1.12
320.669	1.14
321.042	1.08
321.415	1.12
321.788	1.07
322.162	1.04
322.535	1.2
322.908	1.08
323.281	1.11
323.654	1.12
324.027	1.04
324.4	1.08
324.773	1.1
325.145	1.17
325.518	1.11
325.891	1.07
326.264	1.17
326.636	1.07
327.009	1.06
327.382	1.13
327.754	1.09
328.127	1.04
328.499	1.13
328.872	1.14
329.244	1.14
329.616	1.12
329.989	1.17
330.361	1.09
330.733	1.17
331.106	1.1
331.478	1.13
331.85	1.11
332.222	1.19
332.594	1.16
332.966	1.21
333.338	1.28
333.71	1.17
334.082	1.19
334.454	1.13
334.826	1.18
335.197	1.25
335.569	1.22
335.941	1.11
336.312	1.17
336.684	1.21
337.056	1.17
337.427	1.23
337.799	1.23
338.17	1.22
338.542	1.23
338.913	1.23
339.284	1.22
339.656	1.24
340.027	1.19
340.398	1.23
340.769	1.21
341.141	1.29
341.512	1.21
341.883	1.23
342.254	1.25
342.625	1.28
342.996	1.14
343.367	1.33
343.738	1.26
344.108	1.26
344.479	1.31
344.85	1.14
345.221	1.31
345.591	1.19
345.962	1.31
346.333	1.16
346.703	1.17
347.074	1.27
347.444	1.16
347.815	1.23
348.185	1.24
348.556	1.21
348.926	1.22
349.296	1.22
349.666	1.19
350.037	1.16
350.407	1.13
350.777	1.25
351.147	1.32
351.517	1.31
351.887	1.25
352.257	1.28
352.627	1.21
352.997	1.22
353.367	1.39
353.737	1.35
354.106	1.32
354.476	1.29
354.846	1.31
355.216	1.42
355.585	1.38
355.955	1.39
356.324	1.33
356.694	1.36
357.063	1.31
357.433	1.29
357.802	1.35
358.171	1.48
358.541	1.4
358.91	1.51
359.279	1.37
359.648	1.41
360.017	1.53
360.387	1.52
360.756	1.39
361.125	1.52
361.494	1.6
361.863	1.43
362.231	1.42
362.6	1.46
362.969	1.51
363.338	1.4
363.707	1.58
364.075	1.56
364.444	1.35
364.813	1.63
365.181	1.49
365.55	1.44
365.918	1.55
366.287	1.52
366.655	1.48
367.024	1.6
367.392	1.49
367.76	1.56
368.128	1.53
368.497	1.56
368.865	1.5
369.233	1.49
369.601	1.47
369.969	1.53
370.337	1.45
370.705	1.38
371.073	1.45
371.441	1.47
371.809	1.37
372.177	1.48
372.544	1.55
372.912	1.53
373.28	1.46
373.647	1.51
374.015	1.69
374.383	1.69
374.75	1.55
375.118	1.65
375.485	1.59
375.853	1.65
376.22	1.53
376.587	1.44
376.955	1.76
377.322	1.66
377.689	1.53
378.056	1.49
378.423	1.59
378.79	1.5
379.157	1.49
379.524	1.51
379.891	1.43
380.258	1.57
380.625	1.49
380.992	1.47
381.359	1.63
381.726	1.75
382.092	1.48
382.459	1.48
382.826	1.48
383.192	1.46
383.559	1.43
383.925	1.56
384.292	1.56
384.658	1.84
385.025	1.53
385.391	1.71
385.757	1.58
386.123	1.59
386.49	1.61
386.856	1.55
387.222	1.6
387.588	1.61
387.954	1.7
388.32	1.84
388.686	1.61
389.052	1.51
389.418	1.58
389.784	1.46
390.15	1.66
390.515	1.39
390.881	1.62
391.247	1.45
391.613	1.7
391.978	1.42
392.344	1.71
392.709	1.6
393.075	1.56
393.44	1.53
393.806	1.67
394.171	1.39
394.536	1.49
394.902	1.64
395.267	1.68
395.632	1.32
395.997	1.56
396.362	1.53
396.727	1.59
397.092	1.56
397.457	1.57
397.822	1.54
398.187	1.73
398.552	1.6
398.917	1.58
399.282	1.42
399.646	1.59
400.011	1.68
400.376	1.57
400.74	1.59
401.105	1.53
401.47	1.52
401.834	1.45
402.199	1.55
402.563	1.56
402.927	1.51
403.292	1.57
403.656	1.65
404.02	1.52
404.384	1.66
404.749	1.58
405.113	1.58
405.477	1.56
405.841	1.73
406.205	1.53
406.569	1.5
406.933	1.37
407.296	1.52
407.66	1.48
408.024	1.59
408.388	1.55
408.752	1.55
409.115	1.69
409.479	1.59
409.842	1.44
410.206	1.49
410.569	1.51
410.933	1.4
411.296	1.41
411.66	1.61
412.023	1.38
412.386	1.43
412.749	1.37
413.113	1.63
413.476	1.41
413.839	1.43
414.202	1.41
414.565	1.41
414.928	1.38
415.291	1.31
415.654	1.56
416.017	1.4
416.38	1.48
416.742	1.47
417.105	1.38
417.468	1.37
417.83	1.4
418.193	1.54
418.556	1.38
418.918	1.35
419.281	1.55
419.643	1.53
420.005	1.46
420.368	1.45
420.73	1.47
421.092	1.5
421.455	1.62
421.817	1.36
422.179	1.37
422.541	1.4
422.903	1.61
423.265	1.42
423.627	1.48
423.989	1.41
424.351	1.41
424.713	1.48
425.075	1.41
425.436	1.39
425.798	1.49
426.16	1.49
426.521	1.44
426.883	1.39
427.245	1.49
427.606	1.38
427.967	1.32
428.329	1.4
428.69	1.45
429.052	1.34
429.413	1.47
429.774	1.47
430.135	1.52
430.497	1.49
430.858	1.42
431.219	1.41
431.58	1.33
431.941	1.41
432.302	1.34
432.663	1.45
433.024	1.42
433.384	1.4
433.745	1.35
434.106	1.5
434.467	1.47
434.827	1.37
435.188	1.39
435.548	1.42
435.909	1.45
436.269	1.44
436.63	1.36
436.99	1.34
437.351	1.29
437.711	1.37
438.071	1.29
438.431	1.4
438.792	1.34
439.152	1.34
439.512	1.36
439.872	1.25
440.232	1.43
440.592	1.31
440.952	1.27
441.312	1.29
441.671	1.29
442.031	1.28
442.391	1.28
442.751	1.3
443.11	1.26
443.47	1.29
443.83	1.25
444.189	1.18
444.549	1.24
444.908	1.28
445.267	1.2
445.627	1.23
445.986	1.24
446.345	1.19
446.705	1.24
447.064	1.24
447.423	1.2
447.782	1.23
448.141	1.21
448.5	1.12
448.859	1.15
449.218	1.18
449.577	1.19
449.936	1.14
450.295	1.17
450.653	1.12
451.012	1.14
451.371	1.14
451.729	1.14
452.088	1.14
452.447	1.11
452.805	1.08
453.163	1.11
453.522	1.09
453.88	1.07
454.239	1.09
454.597	1.03
454.955	1.03
455.313	1.05
455.671	1.01
456.029	1.02
456.388	1.01
456.746	0.99
457.104	0.98
457.461	0.96
457.819	0.97
458.177	0.94
458.535	0.93
458.893	0.91
459.25	0.93
459.608	0.91
459.966	0.87
460.323	0.87
460.681	0.85
461.038	0.84
461.396	0.83
461.753	0.83
462.111	0.8
462.468	0.8
462.825	0.78
463.182	0.8
463.54	0.78
463.897	0.78
464.254	0.76
464.611	0.74
464.968	0.73
465.325	0.73
465.682	0.72
466.039	0.72
466.395	0.7
466.752	0.7
467.109	0.66
467.466	0.67
467.822	0.66
468.179	0.64
468.535	0.64
468.892	0.62
469.248	0.62
469.605	0.61
469.961	0.61
470.318	0.61
470.674	0.59
471.03	0.58
471.386	0.57
471.743	0.56
472.099	0.54
472.455	0.54
472.811	0.54
473.167	0.53
473.523	0.5
473.879	0.51
474.235	0.5
474.59	0.49
474.946	0.47
475.302	0.48
475.657	0.47
476.013	0.47
476.369	0.45
476.724	0.45
477.08	0.44
477.435	0.43
477.791	0.43
478.146	0.43
478.501	0.42
478.857	0.41
479.212	0.41
479.567	0.4
479.922	0.39
480.277	0.39
480.632	0.37
480.987	0.37
481.342	0.37
481.697	0.35
482.052	0.35
482.407	0.34
482.762	0.34
483.116	0.33
483.471	0.33
483.826	0.31
484.18	0.31
484.535	0.31
484.89	0.3
485.244	0.29
485.598	0.31
485.953	0.29
486.307	0.29
486.661	0.29
487.016	0.28
487.37	0.28
487.724	0.27
488.078	0.26
488.432	0.27
488.786	0.26
489.14	0.26
489.494	0.25
489.848	0.24
490.202	0.24
490.556	0.24
490.91	0.24
491.263	0.24
491.617	0.23
491.971	0.23
492.324	0.22
492.678	0.23
493.031	0.22
493.385	0.22
493.738	0.21
494.091	0.22
494.445	0.21
494.798	0.21
495.151	0.2
495.504	0.2
495.857	0.2
496.21	0.2
496.564	0.19
496.916	0.2
497.269	0.19
497.622	0.2
497.975	0.19
498.328	0.19
498.681	0.19
499.033	0.18
499.386	0.18
499.739	0.18
500.091	0.18
500.444	0.17
500.796	0.17
501.149	0.17
501.501	0.17
501.854	0.17
502.206	0.17
502.558	0.17
502.91	0.17
503.263	0.17
503.615	0.16
503.967	0.17
504.319	0.16
504.671	0.16
505.023	0.16
505.375	0.16
505.726	0.16
506.078	0.15
506.43	0.15
506.782	0.15
507.133	0.15
507.485	0.15
507.837	0.15
508.188	0.15
508.54	0.15
508.891	0.15
509.243	0.15
509.594	0.15
509.945	0.15
510.296	0.14
510.648	0.15
510.999	0.14
511.35	0.14
511.701	0.15
512.052	0.15
512.403	0.14
512.754	0.14
513.105	0.14
513.456	0.13
513.807	0.14
514.157	0.14
514.508	0.14
514.859	0.13
515.209	0.13
515.56	0.14
515.91	0.13
516.261	0.13
516.611	0.12
516.962	0.13
517.312	0.13
517.662	0.13
518.013	0.13
518.363	0.13
518.713	0.13
519.063	0.13
519.413	0.13
519.763	0.13
520.113	0.13
520.463	0.14
520.813	0.13
521.163	0.14
521.512	0.14
521.862	0.13
522.212	0.14
522.562	0.13
522.911	0.13
523.261	0.13
523.61	0.13
523.96	0.13
524.309	0.14
524.658	0.14
525.008	0.13
525.357	0.13
525.706	0.14
526.056	0.13
526.405	0.13
526.754	0.13
527.103	0.13
527.452	0.13
527.801	0.13
528.15	0.13
528.499	0.13
528.847	0.13
529.196	0.13
529.545	0.13
529.893	0.14
530.242	0.14
530.591	0.14
530.939	0.15
531.288	0.14
531.636	0.14
531.985	0.14
532.333	0.13
532.681	0.14
533.029	0.14
533.378	0.14
533.726	0.13
534.074	0.14
534.422	0.13
534.77	0.14
535.118	0.14
535.466	0.13
535.814	0.13
536.162	0.14
536.509	0.14
536.857	0.14
537.205	0.14
537.552	0.13
537.9	0.14
538.248	0.13
538.595	0.14
538.943	0.14
539.29	0.12
539.637	0.13
539.985	0.14
540.332	0.13
540.679	0.13
541.026	0.12
541.373	0.13
541.721	0.12
542.068	0.12
542.415	0.13
542.762	0.12
543.108	0.13
543.455	0.13
543.802	0.12
544.149	0.12
544.496	0.13
544.842	0.12
545.189	0.12
545.535	0.13
545.882	0.13
546.228	0.12
546.575	0.12
546.921	0.11
547.267	0.12
547.614	0.13
547.96	0.13
548.306	0.12
548.652	0.12
548.998	0.13
549.344	0.13
549.69	0.13
550.036	0.13
550.382	0.13
550.728	0.13
551.074	0.13
551.42	0.13
551.765	0.13
552.111	0.13
552.457	0.14
552.802	0.13
553.148	0.13
553.493	0.14
553.839	0.13
554.184	0.13
554.529	0.12
554.875	0.13
555.22	0.14
555.565	0.14
555.91	0.13
556.255	0.14
556.6	0.13
556.945	0.13
557.29	0.13
557.635	0.14
557.98	0.13
558.325	0.14
558.67	0.14
559.014	0.13
559.359	0.14
559.704	0.14
560.048	0.13
560.393	0.13
560.737	0.12
561.082	0.13
561.426	0.12
561.77	0.13
562.115	0.12
562.459	0.12
562.803	0.13
563.147	0.13
563.491	0.13
563.835	0.13
564.179	0.13
564.523	0.12
564.867	0.12
565.211	0.12
565.555	0.13
565.899	0.13
566.242	0.13
566.586	0.12
566.93	0.13
567.273	0.13
567.617	0.14
567.96	0.13
568.304	0.13
568.647	0.12
568.99	0.13
569.334	0.14
569.677	0.13
570.02	0.14
570.363	0.14
570.706	0.13
571.049	0.14
571.392	0.13
571.735	0.13
572.078	0.13
572.421	0.14
572.764	0.13
573.106	0.14
573.449	0.13
573.792	0.13
574.134	0.13
574.477	0.14
574.819	0.14
575.162	0.13
575.504	0.13
575.847	0.13
576.189	0.13
576.531	0.14
576.873	0.13
577.215	0.13
577.558	0.14
577.9	0.12
578.242	0.14
578.584	0.13
578.926	0.13
579.267	0.13
579.609	0.12
579.951	0.12
580.293	0.13
580.634	0.13
580.976	0.13
581.318	0.12
581.659	0.12
582.001	0.13
582.342	0.12
582.683	0.13
583.025	0.12
583.366	0.12
583.707	0.13
584.049	0.12
584.39	0.12
584.731	0.12
585.072	0.12
585.413	0.13
585.754	0.13
586.095	0.13
586.435	0.13
586.776	0.13
587.117	0.13
587.458	0.12
587.798	0.12
588.139	0.12
588.48	0.12
588.82	0.12
589.161	0.13
589.501	0.12
589.841	0.12
590.182	0.13
590.522	0.12
590.862	0.13
591.202	0.13
591.542	0.12
591.882	0.12
592.222	0.12
592.562	0.12
592.902	0.12
593.242	0.13
593.582	0.13
593.922	0.12
594.261	0.13
594.601	0.12
594.941	0.12
595.28	0.12
595.62	0.13
595.959	0.12
596.299	0.13
596.638	0.13
596.977	0.13
597.317	0.14
597.656	0.12
597.995	0.12
598.334	0.13
598.673	0.12
599.012	0.12
599.351	0.12
599.69	0.12
600.029	0.13
600.368	0.12
600.707	0.12
601.046	0.12
601.384	0.13
601.723	0.13
602.061	0.12
602.4	0.12
602.738	0.12
603.077	0.13
603.415	0.12
603.754	0.12
604.092	0.12
604.43	0.12
604.768	0.12
605.107	0.12
605.445	0.12
605.783	0.12
606.121	0.11
606.459	0.12
606.796	0.12
607.134	0.12
607.472	0.12
607.81	0.11
608.148	0.12
608.485	0.12
608.823	0.13
609.16	0.12
609.498	0.12
609.835	0.12
610.173	0.12
610.51	0.13
610.847	0.12
611.185	0.13
611.522	0.12
611.859	0.13
612.196	0.12
612.533	0.13
612.87	0.13
613.207	0.12
613.544	0.12
613.881	0.14
614.217	0.13
614.554	0.13
614.891	0.13
615.228	0.13
615.564	0.13
615.901	0.13
616.237	0.13
616.574	0.13
616.91	0.14
617.246	0.14
617.583	0.14
617.919	0.13
618.255	0.14
618.591	0.13
618.927	0.13
619.263	0.14
619.599	0.13
619.935	0.13
620.271	0.14
620.607	0.14
620.943	0.13
621.279	0.13
621.614	0.13
621.95	0.13
622.286	0.13
622.621	0.13
622.957	0.12
623.292	0.12
623.627	0.13
623.963	0.12
624.298	0.12
624.633	0.12
624.968	0.11
625.304	0.12
625.639	0.12
625.974	0.11
626.309	0.12
626.644	0.11
626.979	0.12
627.313	0.12
627.648	0.12
627.983	0.11
628.318	0.12
628.652	0.11
628.987	0.11
629.321	0.12
629.656	0.12
629.99	0.11
630.325	0.12
630.659	0.12
630.993	0.12
631.327	0.12
631.662	0.11
631.996	0.11
632.33	0.11
632.664	0.11
632.998	0.11
633.332	0.11
633.666	0.11
633.999	0.11
634.333	0.1
634.667	0.11
635.001	0.1
635.334	0.11
635.668	0.11
636.001	0.11
636.335	0.11
636.668	0.11
637.001	0.1
637.335	0.11
637.668	0.11
638.001	0.1
638.334	0.11
638.668	0.1
639.001	0.11
639.334	0.1
639.667	0.1
639.999	0.1
640.332	0.1
640.665	0.1
640.998	0.1
641.331	0.1
641.663	0.1
641.996	0.1
642.328	0.1
642.661	0.1
642.993	0.11
643.326	0.1
643.658	0.1
643.99	0.1
644.323	0.1
644.655	0.11
644.987	0.1
645.319	0.11
645.651	0.11
645.983	0.11
646.315	0.1
646.647	0.11
646.979	0.11
647.31	0.11
647.642	0.11
647.974	0.1
648.305	0.12
648.637	0.11
648.968	0.11
649.3	0.11
649.631	0.11
649.963	0.11
650.294	0.12
650.625	0.11
650.957	0.11
651.288	0.11
651.619	0.11
651.95	0.11
652.281	0.12
652.612	0.11
652.943	0.11
653.274	0.11
653.604	0.11
653.935	0.1
654.266	0.11
654.596	0.1
654.927	0.11
655.258	0.11
655.588	0.11
655.918	0.11
656.249	0.09
656.579	0.1
656.909	0.11
657.24	0.1
657.57	0.11
657.9	0.11
658.23	0.11
658.56	0.11
658.89	0.11
659.22	0.11
659.55	0.11
659.88	0.11
660.209	0.11
660.539	0.12
660.869	0.11
661.198	0.11
661.528	0.11
661.857	0.11
662.187	0.11
662.516	0.11
662.846	0.11
663.175	0.11
663.504	0.11
663.833	0.1
664.163	0.11
664.492	0.1
664.821	0.12
665.15	0.1
665.479	0.1
665.807	0.1
666.136	0.1
666.465	0.1
666.794	0.1
667.122	0.1
667.451	0.1
667.78	0.1
668.108	0.1
668.437	0.1
668.765	0.1
669.093	0.1
669.422	0.1
669.75	0.1
670.078	0.1
670.406	0.11
670.734	0.1
671.062	0.1
671.39	0.1
671.718	0.1
672.046	0.1
672.374	0.1
672.702	0.1
673.029	0.1
673.357	0.1
673.685	0.1
674.012	0.1
674.34	0.1
674.667	0.1
674.995	0.1
675.322	0.1
675.649	0.09
675.977	0.1
676.304	0.09
676.631	0.09
676.958	0.09
677.285	0.09
677.612	0.09
677.939	0.1
678.266	0.1
678.593	0.09
678.92	0.09
679.246	0.09
679.573	0.09
679.9	0.08
680.226	0.09
680.553	0.08
680.879	0.08
681.206	0.09
681.532	0.08
681.858	0.09
682.184	0.08
682.511	0.08
682.837	0.08
683.163	0.09
683.489	0.09
683.815	0.08
684.141	0.09
684.467	0.09
684.793	0.08
685.118	0.08
685.444	0.09
685.77	0.08
686.095	0.09
686.421	0.08
686.746	0.09
687.072	0.09
687.397	0.08
687.723	0.09
688.048	0.09
688.373	0.08
688.698	0.09
689.023	0.08
689.349	0.09
689.674	0.09
689.999	0.09
690.323	0.08
690.648	0.07
690.973	0.07
691.298	0.07
691.623	0.07
691.947	0.08
692.272	0.07
692.596	0.07
692.921	0.08
693.245	0.07
693.57	0.08
693.894	0.08
694.218	0.08
694.543	0.08
694.867	0.07
695.191	0.07
695.515	0.08
695.839	0.07
696.163	0.07
696.487	0.07
696.811	0.07
697.135	0.08
697.458	0.08
697.782	0.07
698.106	0.08
698.429	0.08
698.753	0.07
699.076	0.08
699.4	0.07
699.723	0.07
700.046	0.07
700.37	0.07
700.693	0.08
701.016	0.07
701.339	0.08
701.662	0.08
701.985	0.08
702.308	0.07
702.631	0.08
702.954	0.08
703.277	0.08
703.599	0.08
703.922	0.07
704.245	0.07
704.567	0.07
704.89	0.08
705.212	0.07
705.535	0.08
705.857	0.07
706.179	0.06
706.502	0.07
706.824	0.06
707.146	0.06
707.468	0.08
707.79	0.07
708.112	0.07
708.434	0.07
708.756	0.07
709.078	0.07
709.399	0.07
709.721	0.07
710.043	0.07
710.364	0.07
710.686	0.07
711.007	0.07
711.329	0.08
711.65	0.07
711.972	0.07
712.293	0.07
712.614	0.07
712.935	0.07
713.256	0.07
713.577	0.07
713.898	0.07
714.219	0.07
714.54	0.06
714.861	0.06
715.182	0.07
715.503	0.06
715.823	0.07
716.144	0.06
716.464	0.06
716.785	0.06
717.105	0.06
717.426	0.06
717.746	0.06
718.066	0.05
718.387	0.06
718.707	0.05
719.027	0.06
719.347	0.05
719.667	0.06
719.987	0.06
720.307	0.05
720.627	0.06
720.947	0.05
721.266	0.06
721.586	0.05
721.906	0.05
722.225	0.04
722.545	0.05
722.864	0.04
723.184	0.05
723.503	0.05
723.823	0.06
724.142	0.04
