Data from 12-12-AQDScycling_Absorbance__686__00686.txt Node

Date: Tue Dec 12 13:48:14 EST 2023
User: kyuminlee
Spectrometer: FLMS00943
Trigger mode: 0
Integration Time (sec): 1.000000E-1
Scans to average: 1
Electric dark correction enabled: true
Nonlinearity correction enabled: false
Boxcar width: 0
XAxis mode: Wavelengths
Number of Pixels in Spectrum: 2048
>>>>>Begin Spectral Data<<<<<
179.651	0.46
180.037	0.46
180.424	0.46
180.81	-0.41
181.197	0.01
181.583	-0.48
181.97	-0.55
182.356	-0
182.743	-0
183.129	0.41
183.515	0.33
183.901	-2.25
184.288	0.27
184.674	-0
185.06	-0.03
185.446	-0.41
185.832	-1.28
186.218	-0.02
186.604	-0
186.99	-0
187.376	-0.12
187.762	-0.03
188.148	0.17
188.534	-0.26
188.92	-0.01
189.305	-0.01
189.691	0.15
190.077	0.37
190.463	0.18
190.848	0.17
191.234	-0.01
191.619	-0.02
192.005	0.15
192.391	0.2
192.776	0.14
193.161	0.14
193.547	0.16
193.932	-0.06
194.318	0.07
194.703	0.22
195.088	0.25
195.473	0.1
195.859	0.11
196.244	0.31
196.629	0.08
197.014	0.07
197.399	0.22
197.784	0.1
198.169	0.23
198.554	0.25
198.939	0.15
199.324	0.16
199.709	0.02
200.094	0.23
200.478	0.16
200.863	0.12
201.248	0.18
201.633	0.15
202.017	0.01
202.402	0.22
202.787	0.11
203.171	0.22
203.556	0.11
203.94	0.15
204.325	0.31
204.709	0.12
205.093	0.1
205.478	0.23
205.862	0.14
206.246	0.29
206.631	0.13
207.015	0.06
207.399	0.11
207.783	0.23
208.167	0.19
208.551	0.18
208.935	0.2
209.319	0.15
209.703	0.21
210.087	0.26
210.471	0.18
210.855	0.14
211.239	0.2
211.623	0.27
212.007	0.25
212.39	0.19
212.774	0.15
213.158	0.07
213.541	0.42
213.925	0.28
214.309	0.44
214.692	0.22
215.076	0.21
215.459	0.11
215.842	0.16
216.226	0.26
216.609	0.22
216.993	0.24
217.376	0.38
217.759	0.23
218.142	0.25
218.525	0.38
218.909	0.4
219.292	0.34
219.675	0.33
220.058	0.5
220.441	0.48
220.824	0.68
221.207	0.63
221.59	0.53
221.973	0.53
222.355	0.63
222.738	0.86
223.121	0.71
223.504	0.62
223.886	0.68
224.269	0.55
224.652	0.66
225.034	0.71
225.417	0.7
225.799	0.74
226.182	1.01
226.564	0.78
226.947	0.8
227.329	0.83
227.711	0.91
228.094	0.87
228.476	0.96
228.858	0.75
229.24	0.88
229.623	1.02
230.005	0.84
230.387	0.9
230.769	0.73
231.151	0.99
231.533	0.97
231.915	0.95
232.297	1.06
232.679	0.99
233.061	1.09
233.442	1.07
233.824	1
234.206	1.01
234.588	1.09
234.969	1.05
235.351	0.98
235.733	1.06
236.114	1.14
236.496	1.19
236.877	1.09
237.259	1.24
237.64	1.03
238.022	1.09
238.403	1.1
238.784	1.13
239.165	0.95
239.547	1.05
239.928	0.99
240.309	1.09
240.69	1.03
241.071	1.12
241.452	1.17
241.834	1.02
242.215	1.01
242.595	1.05
242.976	1.06
243.357	1.31
243.738	1.09
244.119	1.08
244.5	1.1
244.881	1.19
245.261	1.24
245.642	1.19
246.023	1.17
246.403	1.13
246.784	1.27
247.164	1.32
247.545	1.2
247.925	1.22
248.306	1.22
248.686	1.33
249.067	1.24
249.447	1.38
249.827	1.43
250.207	1.35
250.588	1.25
250.968	1.5
251.348	1.3
251.728	1.41
252.108	1.3
252.488	1.49
252.868	1.31
253.248	1.3
253.628	1.36
254.008	1.52
254.388	1.36
254.768	1.3
255.147	1.47
255.527	1.39
255.907	1.35
256.287	1.4
256.666	1.53
257.046	1.35
257.425	1.61
257.805	1.33
258.184	1.37
258.564	1.4
258.943	1.32
259.323	1.53
259.702	1.39
260.081	1.45
260.461	1.48
260.84	1.43
261.219	1.53
261.598	1.53
261.977	1.38
262.356	1.43
262.736	1.5
263.115	1.49
263.494	1.36
263.873	1.59
264.251	1.52
264.63	1.67
265.009	1.53
265.388	1.4
265.767	1.32
266.145	1.44
266.524	1.35
266.903	1.35
267.281	1.5
267.66	1.53
268.039	1.49
268.417	1.5
268.796	1.29
269.174	1.46
269.552	1.36
269.931	1.46
270.309	1.37
270.687	1.54
271.066	1.5
271.444	1.37
271.822	1.5
272.2	1.53
272.578	1.31
272.956	1.49
273.334	1.4
273.712	1.52
274.09	1.41
274.468	1.45
274.846	1.27
275.224	1.31
275.602	1.64
275.98	1.48
276.357	1.44
276.735	1.59
277.113	1.38
277.49	1.32
277.868	1.33
278.246	1.43
278.623	1.38
279.001	1.36
279.378	1.35
279.756	1.52
280.133	1.55
280.51	1.39
280.888	1.49
281.265	1.35
281.642	1.46
282.019	1.62
282.396	1.56
282.773	1.39
283.151	1.34
283.528	1.48
283.905	1.38
284.282	1.51
284.659	1.41
285.035	1.42
285.412	1.33
285.789	1.57
286.166	1.34
286.543	1.48
286.919	1.41
287.296	1.4
287.673	1.7
288.049	1.59
288.426	1.7
288.802	1.4
289.179	1.44
289.555	1.58
289.932	1.51
290.308	1.29
290.684	1.28
291.061	1.4
291.437	1.55
291.813	1.33
292.189	1.31
292.565	1.36
292.942	1.25
293.318	1.37
293.694	1.33
294.07	1.45
294.446	1.44
294.822	1.46
295.197	1.51
295.573	1.35
295.949	1.61
296.325	1.57
296.701	1.36
297.076	1.54
297.452	1.6
297.828	1.44
298.203	1.51
298.579	1.53
298.954	1.47
299.33	1.44
299.705	1.53
300.081	1.49
300.456	1.58
300.831	1.47
301.206	1.48
301.582	1.66
301.957	1.47
302.332	1.59
302.707	1.44
303.082	1.36
303.457	1.5
303.832	1.43
304.207	1.5
304.582	1.44
304.957	1.53
305.332	1.63
305.707	1.54
306.082	1.58
306.456	1.57
306.831	1.45
307.206	1.71
307.58	1.52
307.955	1.48
308.33	1.53
308.704	1.43
309.079	1.51
309.453	1.6
309.828	1.57
310.202	1.48
310.576	1.39
310.951	1.54
311.325	1.6
311.699	1.62
312.073	1.39
312.447	1.38
312.821	1.49
313.196	1.51
313.57	1.38
313.944	1.48
314.317	1.41
314.691	1.46
315.065	1.48
315.439	1.79
315.813	1.46
316.187	1.49
316.56	1.64
316.934	1.58
317.308	1.56
317.681	1.5
318.055	1.56
318.428	1.65
318.802	1.53
319.175	1.43
319.549	1.46
319.922	1.37
320.295	1.53
320.669	1.52
321.042	1.48
321.415	1.71
321.788	1.49
322.162	1.49
322.535	1.53
322.908	1.58
323.281	1.45
323.654	1.67
324.027	1.49
324.4	1.47
324.773	1.37
325.145	1.57
325.518	1.48
325.891	1.49
326.264	1.66
326.636	1.45
327.009	1.45
327.382	1.35
327.754	1.45
328.127	1.47
328.499	1.52
328.872	1.54
329.244	1.67
329.616	1.46
329.989	1.47
330.361	1.65
330.733	1.55
331.106	1.46
331.478	1.57
331.85	1.36
332.222	1.42
332.594	1.39
332.966	1.5
333.338	1.66
333.71	1.64
334.082	1.67
334.454	1.51
334.826	1.61
335.197	1.55
335.569	1.55
335.941	1.33
336.312	1.62
336.684	1.47
337.056	1.54
337.427	1.52
337.799	1.6
338.17	1.75
338.542	1.56
338.913	1.69
339.284	1.77
339.656	1.57
340.027	1.54
340.398	1.64
340.769	1.58
341.141	2.04
341.512	1.62
341.883	1.6
342.254	1.47
342.625	1.58
342.996	1.51
343.367	1.42
343.738	1.54
344.108	1.47
344.479	1.5
344.85	1.43
345.221	1.68
345.591	1.44
345.962	1.45
346.333	1.41
346.703	1.37
347.074	1.37
347.444	1.33
347.815	1.43
348.185	1.43
348.556	1.36
348.926	1.33
349.296	1.35
349.666	1.37
350.037	1.36
350.407	1.3
350.777	1.32
351.147	1.35
351.517	1.37
351.887	1.38
352.257	1.4
352.627	1.3
352.997	1.37
353.367	1.38
353.737	1.38
354.106	1.5
354.476	1.34
354.846	1.35
355.216	1.42
355.585	1.39
355.955	1.44
356.324	1.3
356.694	1.32
357.063	1.27
357.433	1.28
357.802	1.27
358.171	1.33
358.541	1.23
358.91	1.23
359.279	1.23
359.648	1.23
360.017	1.22
360.387	1.18
360.756	1.18
361.125	1.22
361.494	1.15
361.863	1.16
362.231	1.12
362.6	1.16
362.969	1.1
363.338	1.1
363.707	1.13
364.075	1.12
364.444	1.05
364.813	1.03
365.181	1.05
365.55	1.03
365.918	1.06
366.287	1.07
366.655	1.01
367.024	1.04
367.392	1
367.76	1
368.128	0.95
368.497	0.96
368.865	0.92
369.233	0.93
369.601	0.98
369.969	0.98
370.337	0.93
370.705	0.9
371.073	0.94
371.441	0.91
371.809	0.93
372.177	0.91
372.544	0.95
372.912	0.91
373.28	0.9
373.647	0.92
374.015	0.92
374.383	0.93
374.75	0.92
375.118	0.87
375.485	0.88
375.853	0.91
376.22	0.89
376.587	0.85
376.955	0.86
377.322	0.89
377.689	0.86
378.056	0.88
378.423	0.87
378.79	0.87
379.157	0.89
379.524	0.85
379.891	0.89
380.258	0.88
380.625	0.89
380.992	0.89
381.359	0.87
381.726	0.93
382.092	0.87
382.459	0.86
382.826	0.89
383.192	0.89
383.559	0.85
383.925	0.9
384.292	0.88
384.658	0.93
385.025	0.92
385.391	0.93
385.757	0.94
386.123	0.91
386.49	0.95
386.856	0.96
387.222	0.95
387.588	0.96
387.954	1
388.32	0.99
388.686	0.92
389.052	0.94
389.418	0.96
389.784	0.93
390.15	0.92
390.515	0.94
390.881	0.96
391.247	0.95
391.613	1
391.978	0.94
392.344	1
392.709	0.95
393.075	0.96
393.44	0.93
393.806	0.94
394.171	0.93
394.536	0.94
394.902	0.93
395.267	0.92
395.632	0.92
395.997	0.93
396.362	0.95
396.727	0.89
397.092	0.91
397.457	0.91
397.822	0.9
398.187	0.92
398.552	0.9
398.917	0.9
399.282	0.88
399.646	0.87
400.011	0.92
400.376	0.84
400.74	0.88
401.105	0.86
401.47	0.87
401.834	0.87
402.199	0.82
402.563	0.83
402.927	0.83
403.292	0.84
403.656	0.83
404.02	0.82
404.384	0.84
404.749	0.81
405.113	0.83
405.477	0.83
405.841	0.78
406.205	0.8
406.569	0.77
406.933	0.77
407.296	0.76
407.66	0.79
408.024	0.75
408.388	0.78
408.752	0.77
409.115	0.75
409.479	0.73
409.842	0.72
410.206	0.69
410.569	0.72
410.933	0.7
411.296	0.69
411.66	0.74
412.023	0.69
412.386	0.7
412.749	0.67
413.113	0.7
413.476	0.68
413.839	0.67
414.202	0.69
414.565	0.68
414.928	0.68
415.291	0.63
415.654	0.63
416.017	0.69
416.38	0.66
416.742	0.62
417.105	0.6
417.468	0.63
417.83	0.66
418.193	0.66
418.556	0.63
418.918	0.63
419.281	0.64
419.643	0.66
420.005	0.63
420.368	0.64
420.73	0.62
421.092	0.63
421.455	0.62
421.817	0.6
422.179	0.6
422.541	0.61
422.903	0.62
423.265	0.62
423.627	0.62
423.989	0.6
424.351	0.59
424.713	0.59
425.075	0.59
425.436	0.57
425.798	0.58
426.16	0.6
426.521	0.59
426.883	0.59
427.245	0.59
427.606	0.58
427.967	0.57
428.329	0.58
428.69	0.61
429.052	0.59
429.413	0.57
429.774	0.57
430.135	0.58
430.497	0.57
430.858	0.56
431.219	0.56
431.58	0.56
431.941	0.55
432.302	0.57
432.663	0.57
433.024	0.57
433.384	0.56
433.745	0.53
434.106	0.55
434.467	0.55
434.827	0.57
435.188	0.56
435.548	0.55
435.909	0.53
436.269	0.54
436.63	0.53
436.99	0.52
437.351	0.52
437.711	0.55
438.071	0.51
438.431	0.52
438.792	0.52
439.152	0.51
439.512	0.52
439.872	0.53
440.232	0.53
440.592	0.52
440.952	0.52
441.312	0.51
441.671	0.5
442.031	0.48
442.391	0.5
442.751	0.49
443.11	0.5
443.47	0.47
443.83	0.48
444.189	0.48
444.549	0.49
444.908	0.49
445.267	0.48
445.627	0.47
445.986	0.48
446.345	0.46
446.705	0.46
447.064	0.46
447.423	0.45
447.782	0.46
448.141	0.44
448.5	0.44
448.859	0.46
449.218	0.45
449.577	0.44
449.936	0.45
450.295	0.44
450.653	0.44
451.012	0.44
451.371	0.44
451.729	0.45
452.088	0.45
452.447	0.43
452.805	0.43
453.163	0.43
453.522	0.44
453.88	0.42
454.239	0.43
454.597	0.42
454.955	0.41
455.313	0.4
455.671	0.41
456.029	0.4
456.388	0.4
456.746	0.39
457.104	0.39
457.461	0.39
457.819	0.38
458.177	0.38
458.535	0.38
458.893	0.36
459.25	0.37
459.608	0.37
459.966	0.36
460.323	0.35
460.681	0.34
461.038	0.35
461.396	0.34
461.753	0.34
462.111	0.34
462.468	0.33
462.825	0.32
463.182	0.33
463.54	0.32
463.897	0.33
464.254	0.32
464.611	0.32
464.968	0.32
465.325	0.32
465.682	0.31
466.039	0.31
466.395	0.3
466.752	0.3
467.109	0.29
467.466	0.3
467.822	0.3
468.179	0.28
468.535	0.28
468.892	0.28
469.248	0.28
469.605	0.28
469.961	0.27
470.318	0.28
470.674	0.28
471.03	0.26
471.386	0.26
471.743	0.26
472.099	0.26
472.455	0.26
472.811	0.26
473.167	0.25
473.523	0.25
473.879	0.25
474.235	0.24
474.59	0.23
474.946	0.24
475.302	0.24
475.657	0.23
476.013	0.23
476.369	0.22
476.724	0.22
477.08	0.23
477.435	0.21
477.791	0.22
478.146	0.22
478.501	0.22
478.857	0.21
479.212	0.21
479.567	0.2
479.922	0.2
480.277	0.2
480.632	0.19
480.987	0.2
481.342	0.19
481.697	0.19
482.052	0.19
482.407	0.18
482.762	0.18
483.116	0.18
483.471	0.17
483.826	0.17
484.18	0.17
484.535	0.17
484.89	0.17
485.244	0.17
485.598	0.17
485.953	0.17
486.307	0.16
486.661	0.17
487.016	0.16
487.37	0.16
487.724	0.17
488.078	0.16
488.432	0.16
488.786	0.16
489.14	0.16
489.494	0.15
489.848	0.15
490.202	0.15
490.556	0.15
490.91	0.15
491.263	0.14
491.617	0.14
491.971	0.15
492.324	0.15
492.678	0.14
493.031	0.15
493.385	0.14
493.738	0.15
494.091	0.14
494.445	0.14
494.798	0.14
495.151	0.14
495.504	0.14
495.857	0.13
496.21	0.14
496.564	0.13
496.916	0.14
497.269	0.13
497.622	0.13
497.975	0.12
498.328	0.13
498.681	0.13
499.033	0.13
499.386	0.12
499.739	0.13
500.091	0.12
500.444	0.12
500.796	0.12
501.149	0.12
501.501	0.12
501.854	0.13
502.206	0.12
502.558	0.12
502.91	0.12
503.263	0.12
503.615	0.12
503.967	0.12
504.319	0.13
504.671	0.12
505.023	0.11
505.375	0.12
505.726	0.11
506.078	0.12
506.43	0.12
506.782	0.11
507.133	0.12
507.485	0.13
507.837	0.13
508.188	0.12
508.54	0.12
508.891	0.12
509.243	0.12
509.594	0.11
509.945	0.11
510.296	0.12
510.648	0.12
510.999	0.11
511.35	0.11
511.701	0.12
512.052	0.13
512.403	0.12
512.754	0.11
513.105	0.12
513.456	0.11
513.807	0.11
514.157	0.12
514.508	0.11
514.859	0.11
515.209	0.11
515.56	0.11
515.91	0.11
516.261	0.11
516.611	0.11
516.962	0.11
517.312	0.11
517.662	0.11
518.013	0.12
518.363	0.12
518.713	0.12
519.063	0.11
519.413	0.12
519.763	0.12
520.113	0.11
520.463	0.12
520.813	0.12
521.163	0.12
521.512	0.12
521.862	0.12
522.212	0.12
522.562	0.13
522.911	0.12
523.261	0.12
523.61	0.12
523.96	0.12
524.309	0.13
524.658	0.12
525.008	0.12
525.357	0.12
525.706	0.12
526.056	0.12
526.405	0.12
526.754	0.12
527.103	0.11
527.452	0.11
527.801	0.12
528.15	0.12
528.499	0.12
528.847	0.12
529.196	0.13
529.545	0.13
529.893	0.13
530.242	0.12
530.591	0.13
530.939	0.13
531.288	0.13
531.636	0.13
531.985	0.12
532.333	0.12
532.681	0.12
533.029	0.12
533.378	0.12
533.726	0.12
534.074	0.13
534.422	0.12
534.77	0.13
535.118	0.13
535.466	0.12
535.814	0.13
536.162	0.13
536.509	0.13
536.857	0.12
537.205	0.13
537.552	0.13
537.9	0.13
538.248	0.13
538.595	0.13
538.943	0.14
539.29	0.12
539.637	0.13
539.985	0.13
540.332	0.12
540.679	0.12
541.026	0.12
541.373	0.13
541.721	0.12
542.068	0.12
542.415	0.12
542.762	0.12
543.108	0.11
543.455	0.11
543.802	0.12
544.149	0.12
544.496	0.12
544.842	0.12
545.189	0.11
545.535	0.11
545.882	0.12
546.228	0.11
546.575	0.1
546.921	0.11
547.267	0.12
547.614	0.12
547.96	0.11
548.306	0.11
548.652	0.12
548.998	0.12
549.344	0.11
549.69	0.11
550.036	0.11
550.382	0.12
550.728	0.12
551.074	0.12
551.42	0.12
551.765	0.12
552.111	0.12
552.457	0.12
552.802	0.12
553.148	0.11
553.493	0.12
553.839	0.12
554.184	0.12
554.529	0.11
554.875	0.13
555.22	0.13
555.565	0.13
555.91	0.12
556.255	0.12
556.6	0.12
556.945	0.12
557.29	0.12
557.635	0.13
557.98	0.12
558.325	0.12
558.67	0.13
559.014	0.13
559.359	0.13
559.704	0.13
560.048	0.12
560.393	0.12
560.737	0.11
561.082	0.12
561.426	0.11
561.77	0.12
562.115	0.11
562.459	0.12
562.803	0.12
563.147	0.12
563.491	0.12
563.835	0.12
564.179	0.12
564.523	0.12
564.867	0.12
565.211	0.12
565.555	0.12
565.899	0.13
566.242	0.13
566.586	0.11
566.93	0.12
567.273	0.13
567.617	0.12
567.96	0.12
568.304	0.12
568.647	0.11
568.99	0.13
569.334	0.13
569.677	0.12
570.02	0.13
570.363	0.13
570.706	0.12
571.049	0.12
571.392	0.13
571.735	0.12
572.078	0.12
572.421	0.13
572.764	0.13
573.106	0.13
573.449	0.12
573.792	0.13
574.134	0.13
574.477	0.13
574.819	0.12
575.162	0.12
575.504	0.12
575.847	0.13
576.189	0.12
576.531	0.12
576.873	0.12
577.215	0.13
577.558	0.13
577.9	0.12
578.242	0.13
578.584	0.12
578.926	0.13
579.267	0.13
579.609	0.13
579.951	0.12
580.293	0.13
580.634	0.13
580.976	0.13
581.318	0.12
581.659	0.12
582.001	0.13
582.342	0.12
582.683	0.12
583.025	0.11
583.366	0.11
583.707	0.12
584.049	0.12
584.39	0.12
584.731	0.12
585.072	0.12
585.413	0.13
585.754	0.12
586.095	0.13
586.435	0.12
586.776	0.12
587.117	0.12
587.458	0.11
587.798	0.12
588.139	0.12
588.48	0.12
588.82	0.12
589.161	0.12
589.501	0.12
589.841	0.12
590.182	0.12
590.522	0.12
590.862	0.12
591.202	0.13
591.542	0.12
591.882	0.12
592.222	0.12
592.562	0.12
592.902	0.12
593.242	0.12
593.582	0.12
593.922	0.12
594.261	0.11
594.601	0.12
594.941	0.12
595.28	0.12
595.62	0.12
595.959	0.12
596.299	0.12
596.638	0.12
596.977	0.12
597.317	0.13
597.656	0.12
597.995	0.12
598.334	0.14
598.673	0.12
599.012	0.12
599.351	0.13
599.69	0.12
600.029	0.13
600.368	0.13
600.707	0.12
601.046	0.12
601.384	0.13
601.723	0.12
602.061	0.12
602.4	0.12
602.738	0.13
603.077	0.13
603.415	0.12
603.754	0.13
604.092	0.12
604.43	0.12
604.768	0.12
605.107	0.12
605.445	0.12
605.783	0.12
606.121	0.12
606.459	0.12
606.796	0.12
607.134	0.12
607.472	0.12
607.81	0.13
608.148	0.12
608.485	0.13
608.823	0.13
609.16	0.12
609.498	0.12
609.835	0.11
610.173	0.12
610.51	0.12
610.847	0.12
611.185	0.12
611.522	0.12
611.859	0.12
612.196	0.12
612.533	0.13
612.87	0.13
613.207	0.12
613.544	0.13
613.881	0.13
614.217	0.13
614.554	0.13
614.891	0.13
615.228	0.13
615.564	0.13
615.901	0.13
616.237	0.13
616.574	0.13
616.91	0.14
617.246	0.13
617.583	0.13
617.919	0.13
618.255	0.14
618.591	0.12
618.927	0.13
619.263	0.14
619.599	0.12
619.935	0.13
620.271	0.13
620.607	0.13
620.943	0.13
621.279	0.13
621.614	0.13
621.95	0.13
622.286	0.12
622.621	0.12
622.957	0.12
623.292	0.12
623.627	0.13
623.963	0.13
624.298	0.12
624.633	0.12
624.968	0.12
625.304	0.12
625.639	0.12
625.974	0.12
626.309	0.12
626.644	0.12
626.979	0.12
627.313	0.12
627.648	0.12
627.983	0.12
628.318	0.12
628.652	0.11
628.987	0.12
629.321	0.12
629.656	0.11
629.99	0.11
630.325	0.12
630.659	0.11
630.993	0.1
631.327	0.11
631.662	0.1
631.996	0.11
632.33	0.11
632.664	0.11
632.998	0.1
633.332	0.1
633.666	0.11
633.999	0.11
634.333	0.11
634.667	0.11
635.001	0.11
635.334	0.1
635.668	0.1
636.001	0.11
636.335	0.11
636.668	0.11
637.001	0.1
637.335	0.11
637.668	0.11
638.001	0.1
638.334	0.1
638.668	0.1
639.001	0.11
639.334	0.1
639.667	0.11
639.999	0.1
640.332	0.11
640.665	0.1
640.998	0.11
641.331	0.11
641.663	0.11
641.996	0.11
642.328	0.11
642.661	0.11
642.993	0.11
643.326	0.11
643.658	0.11
643.99	0.11
644.323	0.1
644.655	0.11
644.987	0.11
645.319	0.11
645.651	0.11
645.983	0.1
646.315	0.11
646.647	0.11
646.979	0.11
647.31	0.11
647.642	0.11
647.974	0.11
648.305	0.12
648.637	0.11
648.968	0.11
649.3	0.11
649.631	0.11
649.963	0.1
650.294	0.11
650.625	0.1
650.957	0.11
651.288	0.11
651.619	0.11
651.95	0.11
652.281	0.11
652.612	0.1
652.943	0.1
653.274	0.12
653.604	0.11
653.935	0.11
654.266	0.11
654.596	0.11
654.927	0.1
655.258	0.11
655.588	0.11
655.918	0.11
656.249	0.09
656.579	0.1
656.909	0.1
657.24	0.1
657.57	0.11
657.9	0.11
658.23	0.1
658.56	0.11
658.89	0.11
659.22	0.1
659.55	0.11
659.88	0.11
660.209	0.11
660.539	0.11
660.869	0.1
661.198	0.11
661.528	0.1
661.857	0.1
662.187	0.11
662.516	0.1
662.846	0.1
663.175	0.1
663.504	0.1
663.833	0.1
664.163	0.1
664.492	0.1
664.821	0.1
665.15	0.1
665.479	0.11
665.807	0.1
666.136	0.11
666.465	0.1
666.794	0.11
667.122	0.1
667.451	0.1
667.78	0.11
668.108	0.11
668.437	0.11
668.765	0.11
669.093	0.11
669.422	0.11
669.75	0.11
670.078	0.1
670.406	0.11
670.734	0.11
671.062	0.1
671.39	0.11
671.718	0.11
672.046	0.1
672.374	0.09
672.702	0.1
673.029	0.1
673.357	0.1
673.685	0.1
674.012	0.1
674.34	0.1
674.667	0.1
674.995	0.1
675.322	0.1
675.649	0.1
675.977	0.1
676.304	0.1
676.631	0.1
676.958	0.11
677.285	0.09
677.612	0.09
677.939	0.09
678.266	0.1
678.593	0.1
678.92	0.1
679.246	0.09
679.573	0.1
679.9	0.09
680.226	0.1
680.553	0.09
680.879	0.1
681.206	0.09
681.532	0.1
681.858	0.09
682.184	0.09
682.511	0.1
682.837	0.09
683.163	0.1
683.489	0.1
683.815	0.09
684.141	0.1
684.467	0.09
684.793	0.1
685.118	0.09
685.444	0.1
685.77	0.1
686.095	0.1
686.421	0.09
686.746	0.1
687.072	0.1
687.397	0.09
687.723	0.1
688.048	0.1
688.373	0.1
688.698	0.09
689.023	0.1
689.349	0.09
689.674	0.09
689.999	0.09
690.323	0.08
690.648	0.08
690.973	0.09
691.298	0.09
691.623	0.09
691.947	0.09
692.272	0.09
692.596	0.09
692.921	0.1
693.245	0.09
693.57	0.09
693.894	0.1
694.218	0.1
694.543	0.09
694.867	0.09
695.191	0.09
695.515	0.1
695.839	0.09
696.163	0.09
696.487	0.09
696.811	0.09
697.135	0.1
697.458	0.1
697.782	0.09
698.106	0.09
698.429	0.09
698.753	0.1
699.076	0.09
699.4	0.09
699.723	0.09
700.046	0.08
700.37	0.1
700.693	0.09
701.016	0.08
701.339	0.1
701.662	0.09
701.985	0.09
702.308	0.09
702.631	0.1
702.954	0.09
703.277	0.09
703.599	0.09
703.922	0.08
704.245	0.08
704.567	0.08
704.89	0.08
705.212	0.09
705.535	0.08
705.857	0.08
706.179	0.08
706.502	0.08
706.824	0.08
707.146	0.07
707.468	0.08
707.79	0.08
708.112	0.08
708.434	0.08
708.756	0.08
709.078	0.09
709.399	0.08
709.721	0.08
710.043	0.09
710.364	0.09
710.686	0.09
711.007	0.09
711.329	0.09
711.65	0.09
711.972	0.08
712.293	0.09
712.614	0.09
712.935	0.09
713.256	0.09
713.577	0.09
713.898	0.08
714.219	0.08
714.54	0.08
714.861	0.08
715.182	0.08
715.503	0.08
715.823	0.08
716.144	0.08
716.464	0.08
716.785	0.07
717.105	0.08
717.426	0.08
717.746	0.07
718.066	0.07
718.387	0.07
718.707	0.07
719.027	0.08
719.347	0.06
719.667	0.08
719.987	0.07
720.307	0.06
720.627	0.07
720.947	0.08
721.266	0.08
721.586	0.07
721.906	0.07
722.225	0.07
722.545	0.07
722.864	0.07
723.184	0.07
723.503	0.08
723.823	0.08
724.142	0.07
724.461	0.07
724.78	0.07
