Data from 12-12-AQDScycling_Absorbance__640__00640.txt Node

Date: Tue Dec 12 13:36:44 EST 2023
User: kyuminlee
Spectrometer: FLMS00943
Trigger mode: 0
Integration Time (sec): 1.000000E-1
Scans to average: 1
Electric dark correction enabled: true
Nonlinearity correction enabled: false
Boxcar width: 0
XAxis mode: Wavelengths
Number of Pixels in Spectrum: 2048
>>>>>Begin Spectral Data<<<<<
179.651	-0
180.037	-0
180.424	-0
180.81	-0.36
181.197	0.37
181.583	-0
181.97	-0
182.356	-0
182.743	-0
183.129	0.28
183.515	0.5
183.901	-2.48
184.288	-0.04
184.674	-0
185.06	-1.3
185.446	0.05
185.832	-0
186.218	0.14
186.604	0.04
186.99	-0
187.376	-0
187.762	-0
188.148	-0
188.534	0.03
188.92	0.15
189.305	0.07
189.691	0.2
190.077	0.18
190.463	0.14
190.848	0.08
191.234	0.04
191.619	0.1
192.005	0.08
192.391	0.24
192.776	0.09
193.161	0.26
193.547	0.12
193.932	0.1
194.318	0.06
194.703	0.05
195.088	0.23
195.473	0.13
195.859	0.11
196.244	0.06
196.629	0.16
197.014	0.07
197.399	0.2
197.784	0.18
198.169	0.34
198.554	0.16
198.939	0.2
199.324	0.23
199.709	0.31
200.094	0.16
200.478	0.1
200.863	0.19
201.248	0.1
201.633	0.19
202.017	0.1
202.402	0.25
202.787	0.22
203.171	0.31
203.556	0.19
203.94	0.13
204.325	0.17
204.709	0.18
205.093	0.07
205.478	0.27
205.862	0.18
206.246	0.07
206.631	0.14
207.015	0.11
207.399	0.19
207.783	0.21
208.167	0.2
208.551	0.12
208.935	0.16
209.319	0.1
209.703	0.12
210.087	0.15
210.471	0.06
210.855	0.19
211.239	0.23
211.623	0.35
212.007	0.24
212.39	0.29
212.774	0.15
213.158	0.14
213.541	0.18
213.925	0.21
214.309	0.33
214.692	0.26
215.076	0.35
215.459	0.21
215.842	0.2
216.226	0.27
216.609	0.36
216.993	0.13
217.376	0.64
217.759	0.18
218.142	0.27
218.525	0.49
218.909	0.33
219.292	0.37
219.675	0.44
220.058	0.47
220.441	0.55
220.824	0.63
221.207	0.62
221.59	0.51
221.973	0.54
222.355	0.54
222.738	0.64
223.121	0.61
223.504	0.54
223.886	0.66
224.269	0.63
224.652	0.68
225.034	0.81
225.417	0.75
225.799	0.84
226.182	0.99
226.564	0.83
226.947	0.76
227.329	0.86
227.711	0.87
228.094	1.01
228.476	0.85
228.858	0.82
229.24	0.92
229.623	0.93
230.005	0.9
230.387	0.86
230.769	0.82
231.151	0.94
231.533	0.92
231.915	1.03
232.297	1.18
232.679	1.01
233.061	0.93
233.442	1.01
233.824	1.2
234.206	1.18
234.588	1.08
234.969	0.93
235.351	0.98
235.733	1.05
236.114	1.13
236.496	0.95
236.877	1.16
237.259	1
237.64	1.06
238.022	1.11
238.403	1.06
238.784	1.01
239.165	0.96
239.547	1
239.928	1.08
240.309	1.02
240.69	1.05
241.071	1.07
241.452	1.25
241.834	1.13
242.215	1.11
242.595	1.06
242.976	1.01
243.357	1.07
243.738	1.02
244.119	1.13
244.5	1.19
244.881	1.43
245.261	1.16
245.642	1.14
246.023	1.22
246.403	1.15
246.784	1.29
247.164	1.27
247.545	1.28
247.925	1.3
248.306	1.23
248.686	1.47
249.067	1.33
249.447	1.38
249.827	1.44
250.207	1.4
250.588	1.35
250.968	1.46
251.348	1.34
251.728	1.44
252.108	1.31
252.488	1.35
252.868	1.48
253.248	1.3
253.628	1.44
254.008	1.5
254.388	1.42
254.768	1.38
255.147	1.42
255.527	1.4
255.907	1.39
256.287	1.43
256.666	1.47
257.046	1.52
257.425	1.46
257.805	1.41
258.184	1.27
258.564	1.39
258.943	1.31
259.323	1.46
259.702	1.57
260.081	1.44
260.461	1.42
260.84	1.43
261.219	1.67
261.598	1.4
261.977	1.49
262.356	1.51
262.736	1.4
263.115	1.51
263.494	1.48
263.873	1.4
264.251	1.57
264.63	1.49
265.009	1.44
265.388	1.41
265.767	1.4
266.145	1.45
266.524	1.35
266.903	1.36
267.281	1.45
267.66	1.56
268.039	1.63
268.417	1.44
268.796	1.41
269.174	1.52
269.552	1.4
269.931	1.59
270.309	1.52
270.687	1.75
271.066	1.53
271.444	1.42
271.822	1.59
272.2	1.6
272.578	1.48
272.956	1.7
273.334	1.43
273.712	1.45
274.09	1.53
274.468	1.43
274.846	1.33
275.224	1.53
275.602	1.41
275.98	1.89
276.357	1.52
276.735	1.63
277.113	1.27
277.49	1.36
277.868	1.35
278.246	1.56
278.623	1.42
279.001	1.31
279.378	1.48
279.756	1.56
280.133	1.77
280.51	1.55
280.888	1.54
281.265	1.44
281.642	1.46
282.019	1.59
282.396	1.64
282.773	1.52
283.151	1.46
283.528	1.53
283.905	1.32
284.282	1.67
284.659	1.51
285.035	1.4
285.412	1.43
285.789	1.46
286.166	1.36
286.543	1.43
286.919	1.47
287.296	1.45
287.673	1.69
288.049	1.73
288.426	1.52
288.802	1.43
289.179	1.47
289.555	1.68
289.932	1.45
290.308	1.48
290.684	1.48
291.061	1.38
291.437	1.53
291.813	1.43
292.189	1.35
292.565	1.31
292.942	1.44
293.318	1.45
293.694	1.52
294.07	1.35
294.446	1.34
294.822	1.68
295.197	1.46
295.573	1.55
295.949	1.51
296.325	1.48
296.701	1.64
297.076	1.59
297.452	1.49
297.828	1.41
298.203	1.62
298.579	1.42
298.954	1.39
299.33	1.35
299.705	1.36
300.081	1.49
300.456	1.48
300.831	1.33
301.206	1.35
301.582	1.56
301.957	1.49
302.332	1.46
302.707	1.33
303.082	1.33
303.457	1.38
303.832	1.34
304.207	1.25
304.582	1.24
304.957	1.31
305.332	1.31
305.707	1.48
306.082	1.39
306.456	1.36
306.831	1.38
307.206	1.34
307.58	1.33
307.955	1.29
308.33	1.29
308.704	1.31
309.079	1.2
309.453	1.31
309.828	1.31
310.202	1.24
310.576	1.21
310.951	1.31
311.325	1.25
311.699	1.23
312.073	1.23
312.447	1.18
312.821	1.18
313.196	1.26
313.57	1.12
313.944	1.21
314.317	1.19
314.691	1.16
315.065	1.22
315.439	1.24
315.813	1.23
316.187	1.16
316.56	1.32
316.934	1.19
317.308	1.19
317.681	1.25
318.055	1.26
318.428	1.24
318.802	1.18
319.175	1.27
319.549	1.22
319.922	1.18
320.295	1.25
320.669	1.24
321.042	1.18
321.415	1.31
321.788	1.19
322.162	1.2
322.535	1.27
322.908	1.28
323.281	1.24
323.654	1.25
324.027	1.19
324.4	1.27
324.773	1.16
325.145	1.27
325.518	1.17
325.891	1.18
326.264	1.26
326.636	1.24
327.009	1.2
327.382	1.23
327.754	1.24
328.127	1.14
328.499	1.25
328.872	1.23
329.244	1.31
329.616	1.19
329.989	1.26
330.361	1.24
330.733	1.23
331.106	1.21
331.478	1.32
331.85	1.24
332.222	1.18
332.594	1.36
332.966	1.27
333.338	1.32
333.71	1.33
334.082	1.38
334.454	1.27
334.826	1.26
335.197	1.23
335.569	1.35
335.941	1.27
336.312	1.27
336.684	1.32
337.056	1.36
337.427	1.34
337.799	1.34
338.17	1.28
338.542	1.28
338.913	1.33
339.284	1.35
339.656	1.29
340.027	1.3
340.398	1.35
340.769	1.35
341.141	1.39
341.512	1.33
341.883	1.35
342.254	1.33
342.625	1.36
342.996	1.31
343.367	1.3
343.738	1.28
344.108	1.21
344.479	1.36
344.85	1.23
345.221	1.4
345.591	1.35
345.962	1.36
346.333	1.53
346.703	1.24
347.074	1.28
347.444	1.2
347.815	1.35
348.185	1.32
348.556	1.31
348.926	1.33
349.296	1.3
349.666	1.25
350.037	1.22
350.407	1.28
350.777	1.29
351.147	1.3
351.517	1.34
351.887	1.3
352.257	1.34
352.627	1.32
352.997	1.25
353.367	1.39
353.737	1.42
354.106	1.44
354.476	1.31
354.846	1.36
355.216	1.43
355.585	1.5
355.955	1.41
356.324	1.48
356.694	1.4
357.063	1.38
357.433	1.34
357.802	1.49
358.171	1.44
358.541	1.37
358.91	1.48
359.279	1.53
359.648	1.34
360.017	1.45
360.387	1.55
360.756	1.39
361.125	1.46
361.494	1.53
361.863	1.41
362.231	1.46
362.6	1.5
362.969	1.41
363.338	1.42
363.707	1.55
364.075	1.57
364.444	1.35
364.813	1.37
365.181	1.44
365.55	1.47
365.918	1.57
366.287	1.52
366.655	1.58
367.024	1.54
367.392	1.56
367.76	1.51
368.128	1.59
368.497	1.49
368.865	1.58
369.233	1.5
369.601	1.45
369.969	1.56
370.337	1.53
370.705	1.49
371.073	1.5
371.441	1.5
371.809	1.44
372.177	1.47
372.544	1.59
372.912	1.6
373.28	1.55
373.647	1.56
374.015	1.57
374.383	1.92
374.75	2.13
375.118	1.55
375.485	1.7
375.853	1.88
376.22	1.47
376.587	1.56
376.955	1.63
377.322	1.48
377.689	1.66
378.056	1.45
378.423	1.49
378.79	1.53
379.157	1.57
379.524	1.63
379.891	1.45
380.258	1.6
380.625	1.49
380.992	1.48
381.359	1.45
381.726	1.7
382.092	1.51
382.459	1.48
382.826	1.49
383.192	1.57
383.559	1.6
383.925	1.55
384.292	1.52
384.658	1.73
385.025	1.59
385.391	1.75
385.757	1.79
386.123	1.56
386.49	1.51
386.856	1.69
387.222	1.7
387.588	1.58
387.954	1.68
388.32	1.78
388.686	1.8
389.052	1.53
389.418	1.64
389.784	1.66
390.15	1.68
390.515	1.37
390.881	1.81
391.247	1.54
391.613	1.7
391.978	1.52
392.344	1.63
392.709	1.73
393.075	1.58
393.44	1.58
393.806	1.57
394.171	1.52
394.536	1.52
394.902	1.67
395.267	1.52
395.632	1.54
395.997	1.65
396.362	1.57
396.727	1.58
397.092	1.6
397.457	1.57
397.822	1.45
398.187	1.77
398.552	1.64
398.917	1.55
399.282	1.49
399.646	1.54
400.011	1.68
400.376	1.47
400.74	1.6
401.105	1.51
401.47	1.67
401.834	1.64
402.199	1.46
402.563	1.6
402.927	1.46
403.292	1.63
403.656	1.71
404.02	1.53
404.384	1.75
404.749	1.58
405.113	1.58
405.477	1.63
405.841	1.55
406.205	1.6
406.569	1.45
406.933	1.49
407.296	1.7
407.66	1.57
408.024	1.57
408.388	1.58
408.752	1.45
409.115	1.7
409.479	1.59
409.842	1.56
410.206	1.49
410.569	1.45
410.933	1.51
411.296	1.48
411.66	1.61
412.023	1.35
412.386	1.49
412.749	1.46
413.113	1.49
413.476	1.35
413.839	1.46
414.202	1.62
414.565	1.45
414.928	1.41
415.291	1.39
415.654	1.39
416.017	1.66
416.38	1.31
416.742	1.54
417.105	1.38
417.468	1.44
417.83	1.4
418.193	1.5
418.556	1.36
418.918	1.43
419.281	1.45
419.643	1.45
420.005	1.53
420.368	1.5
420.73	1.54
421.092	1.44
421.455	1.53
421.817	1.33
422.179	1.38
422.541	1.63
422.903	1.46
423.265	1.55
423.627	1.42
423.989	1.35
424.351	1.36
424.713	1.53
425.075	1.43
425.436	1.4
425.798	1.37
426.16	1.58
426.521	1.4
426.883	1.47
427.245	1.48
427.606	1.4
427.967	1.32
428.329	1.3
428.69	1.47
429.052	1.37
429.413	1.46
429.774	1.44
430.135	1.41
430.497	1.44
430.858	1.42
431.219	1.4
431.58	1.31
431.941	1.48
432.302	1.37
432.663	1.38
433.024	1.42
433.384	1.39
433.745	1.41
434.106	1.44
434.467	1.35
434.827	1.36
435.188	1.38
435.548	1.46
435.909	1.38
436.269	1.42
436.63	1.3
436.99	1.35
437.351	1.24
437.711	1.34
438.071	1.27
438.431	1.26
438.792	1.35
439.152	1.3
439.512	1.27
439.872	1.26
440.232	1.34
440.592	1.3
440.952	1.35
441.312	1.21
441.671	1.3
442.031	1.24
442.391	1.26
442.751	1.3
443.11	1.29
443.47	1.18
443.83	1.22
444.189	1.24
444.549	1.24
444.908	1.2
445.267	1.2
445.627	1.23
445.986	1.16
446.345	1.13
446.705	1.18
447.064	1.16
447.423	1.16
447.782	1.18
448.141	1.11
448.5	1.14
448.859	1.1
449.218	1.12
449.577	1.17
449.936	1.11
450.295	1.11
450.653	1.1
451.012	1.12
451.371	1.09
451.729	1.08
452.088	1.09
452.447	1.08
452.805	1.06
453.163	1.06
453.522	1.05
453.88	1.03
454.239	1.02
454.597	1.01
454.955	0.99
455.313	1.01
455.671	1.01
456.029	0.99
456.388	0.96
456.746	0.96
457.104	0.93
457.461	0.92
457.819	0.91
458.177	0.91
458.535	0.9
458.893	0.89
459.25	0.87
459.608	0.87
459.966	0.87
460.323	0.86
460.681	0.85
461.038	0.82
461.396	0.81
461.753	0.82
462.111	0.78
462.468	0.77
462.825	0.78
463.182	0.76
463.54	0.76
463.897	0.76
464.254	0.73
464.611	0.74
464.968	0.72
465.325	0.71
465.682	0.71
466.039	0.71
466.395	0.68
466.752	0.69
467.109	0.66
467.466	0.65
467.822	0.65
468.179	0.62
468.535	0.63
468.892	0.62
469.248	0.6
469.605	0.61
469.961	0.58
470.318	0.6
470.674	0.59
471.03	0.56
471.386	0.56
471.743	0.55
472.099	0.54
472.455	0.55
472.811	0.53
473.167	0.53
473.523	0.52
473.879	0.51
474.235	0.5
474.59	0.49
474.946	0.48
475.302	0.48
475.657	0.47
476.013	0.46
476.369	0.44
476.724	0.44
477.08	0.44
477.435	0.43
477.791	0.43
478.146	0.43
478.501	0.42
478.857	0.41
479.212	0.4
479.567	0.4
479.922	0.38
480.277	0.38
480.632	0.38
480.987	0.38
481.342	0.36
481.697	0.36
482.052	0.35
482.407	0.35
482.762	0.34
483.116	0.34
483.471	0.33
483.826	0.32
484.18	0.32
484.535	0.32
484.89	0.31
485.244	0.31
485.598	0.3
485.953	0.3
486.307	0.3
486.661	0.3
487.016	0.29
487.37	0.28
487.724	0.28
488.078	0.28
488.432	0.27
488.786	0.27
489.14	0.27
489.494	0.26
489.848	0.26
490.202	0.25
490.556	0.25
490.91	0.25
491.263	0.25
491.617	0.25
491.971	0.24
492.324	0.24
492.678	0.23
493.031	0.23
493.385	0.23
493.738	0.23
494.091	0.23
494.445	0.23
494.798	0.22
495.151	0.22
495.504	0.22
495.857	0.21
496.21	0.22
496.564	0.21
496.916	0.21
497.269	0.2
497.622	0.2
497.975	0.19
498.328	0.2
498.681	0.2
499.033	0.19
499.386	0.19
499.739	0.19
500.091	0.19
500.444	0.19
500.796	0.19
501.149	0.18
501.501	0.19
501.854	0.18
502.206	0.18
502.558	0.19
502.91	0.18
503.263	0.18
503.615	0.18
503.967	0.17
504.319	0.17
504.671	0.18
505.023	0.17
505.375	0.17
505.726	0.17
506.078	0.17
506.43	0.16
506.782	0.17
507.133	0.17
507.485	0.17
507.837	0.18
508.188	0.17
508.54	0.17
508.891	0.17
509.243	0.17
509.594	0.17
509.945	0.16
510.296	0.17
510.648	0.17
510.999	0.16
511.35	0.17
511.701	0.16
512.052	0.17
512.403	0.16
512.754	0.16
513.105	0.16
513.456	0.16
513.807	0.16
514.157	0.16
514.508	0.16
514.859	0.15
515.209	0.16
515.56	0.16
515.91	0.15
516.261	0.16
516.611	0.16
516.962	0.15
517.312	0.16
517.662	0.16
518.013	0.16
518.363	0.16
518.713	0.16
519.063	0.16
519.413	0.16
519.763	0.16
520.113	0.16
520.463	0.17
520.813	0.17
521.163	0.17
521.512	0.17
521.862	0.16
522.212	0.16
522.562	0.16
522.911	0.16
523.261	0.16
523.61	0.16
523.96	0.16
524.309	0.16
524.658	0.16
525.008	0.16
525.357	0.16
525.706	0.17
526.056	0.16
526.405	0.16
526.754	0.16
527.103	0.16
527.452	0.16
527.801	0.16
528.15	0.16
528.499	0.16
528.847	0.15
529.196	0.17
529.545	0.16
529.893	0.17
530.242	0.16
530.591	0.17
530.939	0.17
531.288	0.17
531.636	0.17
531.985	0.17
532.333	0.17
532.681	0.17
533.029	0.17
533.378	0.17
533.726	0.16
534.074	0.17
534.422	0.17
534.77	0.17
535.118	0.17
535.466	0.16
535.814	0.16
536.162	0.17
536.509	0.17
536.857	0.17
537.205	0.17
537.552	0.17
537.9	0.17
538.248	0.16
538.595	0.17
538.943	0.18
539.29	0.17
539.637	0.16
539.985	0.17
540.332	0.17
540.679	0.16
541.026	0.16
541.373	0.18
541.721	0.16
542.068	0.17
542.415	0.17
542.762	0.16
543.108	0.15
543.455	0.15
543.802	0.16
544.149	0.16
544.496	0.16
544.842	0.16
545.189	0.15
545.535	0.16
545.882	0.16
546.228	0.15
546.575	0.15
546.921	0.16
547.267	0.16
547.614	0.15
547.96	0.16
548.306	0.15
548.652	0.15
548.998	0.16
549.344	0.16
549.69	0.16
550.036	0.16
550.382	0.16
550.728	0.16
551.074	0.17
551.42	0.16
551.765	0.16
552.111	0.17
552.457	0.16
552.802	0.17
553.148	0.17
553.493	0.16
553.839	0.17
554.184	0.17
554.529	0.16
554.875	0.17
555.22	0.18
555.565	0.17
555.91	0.17
556.255	0.18
556.6	0.17
556.945	0.16
557.29	0.17
557.635	0.17
557.98	0.17
558.325	0.16
558.67	0.17
559.014	0.17
559.359	0.17
559.704	0.17
560.048	0.17
560.393	0.16
560.737	0.15
561.082	0.17
561.426	0.16
561.77	0.16
562.115	0.16
562.459	0.16
562.803	0.16
563.147	0.16
563.491	0.17
563.835	0.17
564.179	0.17
564.523	0.16
564.867	0.16
565.211	0.18
565.555	0.17
565.899	0.18
566.242	0.17
566.586	0.16
566.93	0.16
567.273	0.17
567.617	0.17
567.96	0.17
568.304	0.17
568.647	0.16
568.99	0.17
569.334	0.18
569.677	0.17
570.02	0.18
570.363	0.17
570.706	0.17
571.049	0.17
571.392	0.17
571.735	0.17
572.078	0.17
572.421	0.18
572.764	0.18
573.106	0.17
573.449	0.17
573.792	0.17
574.134	0.17
574.477	0.16
574.819	0.17
575.162	0.17
575.504	0.17
575.847	0.18
576.189	0.17
576.531	0.17
576.873	0.17
577.215	0.17
577.558	0.16
577.9	0.17
578.242	0.17
578.584	0.16
578.926	0.17
579.267	0.16
579.609	0.17
579.951	0.16
580.293	0.17
580.634	0.17
580.976	0.18
581.318	0.16
581.659	0.17
582.001	0.17
582.342	0.16
582.683	0.16
583.025	0.15
583.366	0.16
583.707	0.16
584.049	0.16
584.39	0.16
584.731	0.16
585.072	0.16
585.413	0.17
585.754	0.16
586.095	0.16
586.435	0.16
586.776	0.16
587.117	0.16
587.458	0.16
587.798	0.17
588.139	0.16
588.48	0.16
588.82	0.16
589.161	0.16
589.501	0.17
589.841	0.16
590.182	0.16
590.522	0.16
590.862	0.16
591.202	0.16
591.542	0.16
591.882	0.16
592.222	0.17
592.562	0.16
592.902	0.16
593.242	0.16
593.582	0.17
593.922	0.16
594.261	0.16
594.601	0.16
594.941	0.15
595.28	0.16
595.62	0.16
595.959	0.16
596.299	0.16
596.638	0.16
596.977	0.16
597.317	0.17
597.656	0.16
597.995	0.16
598.334	0.17
598.673	0.16
599.012	0.16
599.351	0.17
599.69	0.17
600.029	0.17
600.368	0.17
600.707	0.16
601.046	0.17
601.384	0.17
601.723	0.17
602.061	0.16
602.4	0.16
602.738	0.16
603.077	0.16
603.415	0.17
603.754	0.17
604.092	0.16
604.43	0.16
604.768	0.17
605.107	0.17
605.445	0.15
605.783	0.16
606.121	0.16
606.459	0.16
606.796	0.16
607.134	0.16
607.472	0.16
607.81	0.16
608.148	0.16
608.485	0.16
608.823	0.16
609.16	0.16
609.498	0.15
609.835	0.16
610.173	0.15
610.51	0.16
610.847	0.16
611.185	0.16
611.522	0.16
611.859	0.16
612.196	0.16
612.533	0.16
612.87	0.17
613.207	0.16
613.544	0.16
613.881	0.17
614.217	0.17
614.554	0.16
614.891	0.16
615.228	0.17
615.564	0.17
615.901	0.16
616.237	0.17
616.574	0.17
616.91	0.17
617.246	0.17
617.583	0.17
617.919	0.17
618.255	0.16
618.591	0.17
618.927	0.17
619.263	0.17
619.599	0.16
619.935	0.17
620.271	0.16
620.607	0.17
620.943	0.16
621.279	0.16
621.614	0.17
621.95	0.17
622.286	0.16
622.621	0.16
622.957	0.16
623.292	0.16
623.627	0.16
623.963	0.16
624.298	0.16
624.633	0.16
624.968	0.15
625.304	0.15
625.639	0.15
625.974	0.15
626.309	0.15
626.644	0.15
626.979	0.16
627.313	0.16
627.648	0.15
627.983	0.16
628.318	0.15
628.652	0.15
628.987	0.16
629.321	0.16
629.656	0.14
629.99	0.14
630.325	0.15
630.659	0.14
630.993	0.14
631.327	0.14
631.662	0.14
631.996	0.14
632.33	0.15
632.664	0.14
632.998	0.14
633.332	0.13
633.666	0.14
633.999	0.15
634.333	0.14
634.667	0.13
635.001	0.14
635.334	0.15
635.668	0.14
636.001	0.14
636.335	0.14
636.668	0.15
637.001	0.13
637.335	0.14
637.668	0.14
638.001	0.14
638.334	0.14
638.668	0.13
639.001	0.13
639.334	0.14
639.667	0.14
639.999	0.14
640.332	0.14
640.665	0.13
640.998	0.14
641.331	0.14
641.663	0.13
641.996	0.14
642.328	0.14
642.661	0.14
642.993	0.14
643.326	0.14
643.658	0.13
643.99	0.14
644.323	0.13
644.655	0.14
644.987	0.13
645.319	0.13
645.651	0.14
645.983	0.13
646.315	0.13
646.647	0.14
646.979	0.14
647.31	0.14
647.642	0.14
647.974	0.13
648.305	0.14
648.637	0.14
648.968	0.14
649.3	0.14
649.631	0.14
649.963	0.14
650.294	0.14
650.625	0.13
650.957	0.14
651.288	0.14
651.619	0.14
651.95	0.14
652.281	0.14
652.612	0.14
652.943	0.14
653.274	0.14
653.604	0.14
653.935	0.13
654.266	0.14
654.596	0.13
654.927	0.13
655.258	0.14
655.588	0.14
655.918	0.14
656.249	0.11
656.579	0.13
656.909	0.13
657.24	0.12
657.57	0.13
657.9	0.14
658.23	0.13
658.56	0.13
658.89	0.14
659.22	0.13
659.55	0.13
659.88	0.13
660.209	0.13
660.539	0.14
660.869	0.13
661.198	0.13
661.528	0.13
661.857	0.12
662.187	0.13
662.516	0.13
662.846	0.12
663.175	0.13
663.504	0.13
663.833	0.12
664.163	0.13
664.492	0.12
664.821	0.13
665.15	0.12
665.479	0.13
665.807	0.12
666.136	0.13
666.465	0.13
666.794	0.13
667.122	0.13
667.451	0.13
667.78	0.13
668.108	0.13
668.437	0.13
668.765	0.13
669.093	0.13
669.422	0.13
669.75	0.13
670.078	0.12
670.406	0.13
670.734	0.13
671.062	0.12
671.39	0.13
671.718	0.12
672.046	0.12
672.374	0.12
672.702	0.12
673.029	0.12
673.357	0.13
673.685	0.13
674.012	0.12
674.34	0.12
674.667	0.13
674.995	0.13
675.322	0.12
675.649	0.12
675.977	0.12
676.304	0.12
676.631	0.12
676.958	0.12
677.285	0.11
677.612	0.11
677.939	0.12
678.266	0.12
678.593	0.12
678.92	0.12
679.246	0.12
679.573	0.12
679.9	0.11
680.226	0.12
680.553	0.11
680.879	0.12
681.206	0.11
681.532	0.11
681.858	0.11
682.184	0.12
682.511	0.11
682.837	0.12
683.163	0.12
683.489	0.12
683.815	0.11
684.141	0.12
684.467	0.11
684.793	0.12
685.118	0.11
685.444	0.12
685.77	0.11
686.095	0.12
686.421	0.11
686.746	0.12
687.072	0.11
687.397	0.11
687.723	0.11
688.048	0.11
688.373	0.11
688.698	0.11
689.023	0.11
689.349	0.11
689.674	0.11
689.999	0.11
690.323	0.1
690.648	0.1
690.973	0.1
691.298	0.1
691.623	0.1
691.947	0.11
692.272	0.11
692.596	0.11
692.921	0.11
693.245	0.11
693.57	0.12
693.894	0.11
694.218	0.11
694.543	0.11
694.867	0.11
695.191	0.11
695.515	0.12
695.839	0.1
696.163	0.12
696.487	0.11
696.811	0.1
697.135	0.11
697.458	0.11
697.782	0.11
698.106	0.11
698.429	0.11
698.753	0.11
699.076	0.1
699.4	0.11
699.723	0.11
700.046	0.1
700.37	0.1
700.693	0.11
701.016	0.1
701.339	0.1
701.662	0.11
701.985	0.11
702.308	0.1
702.631	0.11
702.954	0.11
703.277	0.1
703.599	0.1
703.922	0.09
704.245	0.09
704.567	0.09
704.89	0.11
705.212	0.1
705.535	0.1
705.857	0.1
706.179	0.1
706.502	0.09
706.824	0.09
707.146	0.09
707.468	0.1
707.79	0.1
708.112	0.1
708.434	0.11
708.756	0.1
709.078	0.1
709.399	0.1
709.721	0.1
710.043	0.1
710.364	0.1
710.686	0.1
711.007	0.1
711.329	0.1
711.65	0.1
711.972	0.1
712.293	0.1
712.614	0.1
712.935	0.1
713.256	0.1
713.577	0.1
713.898	0.1
714.219	0.09
714.54	0.1
714.861	0.09
715.182	0.09
715.503	0.09
715.823	0.09
716.144	0.08
716.464	0.08
716.785	0.09
717.105	0.08
717.426	0.09
717.746	0.09
718.066	0.09
718.387	0.09
718.707	0.08
719.027	0.09
719.347	0.07
719.667	0.09
719.987	0.08
720.307	0.08
720.627	0.08
720.947	0.08
721.266	0.08
721.586	0.08
721.906	0.09
722.225	0.08
722.545	0.09
722.864	0.07
723.184	0.09
723.503	0.09
723.823	0.09
724.142	0.08
