Data from 12-12-AQDScycling_Absorbance__286__00286.txt Node

Date: Tue Dec 12 12:08:14 EST 2023
User: kyuminlee
Spectrometer: FLMS00943
Trigger mode: 0
Integration Time (sec): 1.000000E-1
Scans to average: 1
Electric dark correction enabled: true
Nonlinearity correction enabled: false
Boxcar width: 0
XAxis mode: Wavelengths
Number of Pixels in Spectrum: 2048
>>>>>Begin Spectral Data<<<<<
179.651	-0
180.037	-0
180.424	-0
180.81	-0.3
181.197	0.34
181.583	-0
181.97	-0.3
182.356	-0
182.743	-0
183.129	0.69
183.515	0.45
183.901	-2.44
184.288	0.18
184.674	-0
185.06	-0
185.446	-0
185.832	-0
186.218	0.22
186.604	0.78
186.99	-0
187.376	-0
187.762	0.01
188.148	0.45
188.534	0
188.92	0.16
189.305	0.1
189.691	0.06
190.077	0.08
190.463	0.02
190.848	0.07
191.234	0.09
191.619	0.06
192.005	0.07
192.391	0.09
192.776	0.09
193.161	0.19
193.547	0.1
193.932	-0.06
194.318	0.01
194.703	0.15
195.088	0.27
195.473	0.19
195.859	0.23
196.244	0.16
196.629	0.24
197.014	0.22
197.399	0.14
197.784	0.32
198.169	0.14
198.554	0.37
198.939	0.11
199.324	0.13
199.709	0.02
200.094	0.07
200.478	0.08
200.863	0.16
201.248	0.46
201.633	0.18
202.017	0.11
202.402	0.21
202.787	0.1
203.171	0.08
203.556	0.26
203.94	0.15
204.325	0.17
204.709	0.2
205.093	0.17
205.478	0.32
205.862	0.35
206.246	0.26
206.631	0.15
207.015	0.19
207.399	0.21
207.783	0.29
208.167	0.21
208.551	0.25
208.935	0.21
209.319	0.13
209.703	0.19
210.087	0.2
210.471	0.11
210.855	0.08
211.239	0.27
211.623	0.28
212.007	0.24
212.39	0.22
212.774	0.43
213.158	0.18
213.541	0.15
213.925	0.22
214.309	0.37
214.692	0.4
215.076	0.3
215.459	0.21
215.842	0.06
216.226	0.22
216.609	0.36
216.993	0.13
217.376	0.44
217.759	0.2
218.142	0.43
218.525	0.43
218.909	0.34
219.292	0.26
219.675	0.43
220.058	0.44
220.441	0.46
220.824	0.48
221.207	0.58
221.59	0.49
221.973	0.52
222.355	0.63
222.738	0.66
223.121	0.49
223.504	0.65
223.886	0.62
224.269	0.77
224.652	0.68
225.034	0.76
225.417	0.74
225.799	0.74
226.182	0.83
226.564	0.75
226.947	0.74
227.329	0.77
227.711	1.02
228.094	1.07
228.476	1.07
228.858	0.83
229.24	0.86
229.623	1.04
230.005	0.9
230.387	0.87
230.769	0.96
231.151	0.93
231.533	0.88
231.915	1.01
232.297	0.98
232.679	1.03
233.061	0.93
233.442	1.05
233.824	1.05
234.206	1.11
234.588	1.05
234.969	1.07
235.351	1.02
235.733	1.02
236.114	1.05
236.496	1.01
236.877	1.16
237.259	0.99
237.64	1.08
238.022	0.92
238.403	1.03
238.784	0.95
239.165	1.01
239.547	1.03
239.928	1.05
240.309	1.1
240.69	1.08
241.071	1.06
241.452	1.11
241.834	1
242.215	1.11
242.595	1.15
242.976	1.19
243.357	1.03
243.738	1.02
244.119	1.36
244.5	1.15
244.881	1.18
245.261	1.18
245.642	1.06
246.023	1.17
246.403	1.13
246.784	1.27
247.164	1.34
247.545	1.27
247.925	1.42
248.306	1.23
248.686	1.44
249.067	1.32
249.447	1.5
249.827	1.61
250.207	1.44
250.588	1.27
250.968	1.41
251.348	1.39
251.728	1.5
252.108	1.48
252.488	1.42
252.868	1.26
253.248	1.36
253.628	1.42
254.008	1.49
254.388	1.29
254.768	1.26
255.147	1.3
255.527	1.38
255.907	1.36
256.287	1.5
256.666	1.32
257.046	1.5
257.425	1.45
257.805	1.25
258.184	1.38
258.564	1.4
258.943	1.29
259.323	1.61
259.702	1.62
260.081	1.48
260.461	1.42
260.84	1.35
261.219	1.54
261.598	1.47
261.977	1.43
262.356	1.39
262.736	1.38
263.115	1.5
263.494	1.43
263.873	1.57
264.251	1.54
264.63	1.53
265.009	1.36
265.388	1.36
265.767	1.34
266.145	1.42
266.524	1.48
266.903	1.39
267.281	1.41
267.66	1.49
268.039	1.49
268.417	1.44
268.796	1.46
269.174	1.43
269.552	1.41
269.931	1.62
270.309	1.51
270.687	1.58
271.066	1.61
271.444	1.28
271.822	1.43
272.2	1.43
272.578	1.37
272.956	1.32
273.334	1.39
273.712	1.49
274.09	1.44
274.468	1.49
274.846	1.27
275.224	1.37
275.602	1.5
275.98	1.64
276.357	1.46
276.735	1.39
277.113	1.46
277.49	1.54
277.868	1.24
278.246	1.49
278.623	1.42
279.001	1.29
279.378	1.44
279.756	1.43
280.133	1.64
280.51	1.39
280.888	1.59
281.265	1.36
281.642	1.43
282.019	1.68
282.396	1.62
282.773	1.41
283.151	1.54
283.528	1.45
283.905	1.37
284.282	1.53
284.659	1.57
285.035	1.4
285.412	1.36
285.789	1.42
286.166	1.48
286.543	1.46
286.919	1.48
287.296	1.46
287.673	1.5
288.049	1.55
288.426	1.46
288.802	1.6
289.179	1.46
289.555	1.75
289.932	1.47
290.308	1.3
290.684	1.43
291.061	1.31
291.437	1.43
291.813	1.39
292.189	1.36
292.565	1.39
292.942	1.4
293.318	1.4
293.694	1.43
294.07	1.33
294.446	1.38
294.822	1.47
295.197	1.41
295.573	1.33
295.949	1.48
296.325	1.45
296.701	1.62
297.076	1.7
297.452	1.7
297.828	1.4
298.203	1.66
298.579	1.49
298.954	1.51
299.33	1.56
299.705	1.48
300.081	1.4
300.456	1.45
300.831	1.4
301.206	1.41
301.582	1.46
301.957	1.53
302.332	1.66
302.707	1.43
303.082	1.44
303.457	1.41
303.832	1.45
304.207	1.42
304.582	1.48
304.957	1.51
305.332	1.45
305.707	1.4
306.082	1.47
306.456	1.4
306.831	1.42
307.206	1.41
307.58	1.52
307.955	1.32
308.33	1.35
308.704	1.41
309.079	1.35
309.453	1.42
309.828	1.53
310.202	1.37
310.576	1.37
310.951	1.48
311.325	1.4
311.699	1.4
312.073	1.28
312.447	1.39
312.821	1.28
313.196	1.43
313.57	1.33
313.944	1.32
314.317	1.3
314.691	1.4
315.065	1.54
315.439	1.44
315.813	1.38
316.187	1.41
316.56	1.58
316.934	1.46
317.308	1.36
317.681	1.43
318.055	1.49
318.428	1.47
318.802	1.41
319.175	1.33
319.549	1.44
319.922	1.32
320.295	1.35
320.669	1.54
321.042	1.41
321.415	1.5
321.788	1.37
322.162	1.34
322.535	1.44
322.908	1.38
323.281	1.37
323.654	1.58
324.027	1.37
324.4	1.46
324.773	1.56
325.145	1.52
325.518	1.36
325.891	1.38
326.264	1.49
326.636	1.35
327.009	1.31
327.382	1.42
327.754	1.48
328.127	1.47
328.499	1.42
328.872	1.44
329.244	1.45
329.616	1.4
329.989	1.37
330.361	1.43
330.733	1.38
331.106	1.34
331.478	1.49
331.85	1.43
332.222	1.38
332.594	1.42
332.966	1.47
333.338	1.64
333.71	1.51
334.082	1.55
334.454	1.39
334.826	1.32
335.197	1.54
335.569	1.47
335.941	1.37
336.312	1.35
336.684	1.43
337.056	1.52
337.427	1.45
337.799	1.49
338.17	1.57
338.542	1.39
338.913	1.51
339.284	1.61
339.656	1.5
340.027	1.43
340.398	1.55
340.769	1.49
341.141	1.55
341.512	1.44
341.883	1.51
342.254	1.56
342.625	1.59
342.996	1.42
343.367	1.38
343.738	1.51
344.108	1.34
344.479	1.68
344.85	1.33
345.221	1.67
345.591	1.35
345.962	1.5
346.333	1.49
346.703	1.29
347.074	1.28
347.444	1.25
347.815	1.41
348.185	1.29
348.556	1.34
348.926	1.31
349.296	1.28
349.666	1.25
350.037	1.26
350.407	1.22
350.777	1.28
351.147	1.38
351.517	1.4
351.887	1.33
352.257	1.34
352.627	1.3
352.997	1.27
353.367	1.36
353.737	1.43
354.106	1.37
354.476	1.36
354.846	1.39
355.216	1.49
355.585	1.44
355.955	1.34
356.324	1.37
356.694	1.36
357.063	1.3
357.433	1.37
357.802	1.44
358.171	1.38
358.541	1.42
358.91	1.33
359.279	1.27
359.648	1.3
360.017	1.32
360.387	1.37
360.756	1.28
361.125	1.28
361.494	1.4
361.863	1.33
362.231	1.29
362.6	1.4
362.969	1.36
363.338	1.36
363.707	1.55
364.075	1.44
364.444	1.21
364.813	1.28
365.181	1.33
365.55	1.31
365.918	1.38
366.287	1.33
366.655	1.38
367.024	1.31
367.392	1.4
367.76	1.28
368.128	1.37
368.497	1.37
368.865	1.4
369.233	1.45
369.601	1.36
369.969	1.44
370.337	1.44
370.705	1.44
371.073	1.4
371.441	1.39
371.809	1.3
372.177	1.37
372.544	1.44
372.912	1.31
373.28	1.47
373.647	1.43
374.015	1.46
374.383	1.44
374.75	1.47
375.118	1.38
375.485	1.39
375.853	1.45
376.22	1.43
376.587	1.31
376.955	1.47
377.322	1.41
377.689	1.35
378.056	1.41
378.423	1.35
378.79	1.38
379.157	1.35
379.524	1.43
379.891	1.44
380.258	1.47
380.625	1.37
380.992	1.43
381.359	1.47
381.726	1.57
382.092	1.34
382.459	1.38
382.826	1.49
383.192	1.54
383.559	1.47
383.925	1.48
384.292	1.43
384.658	1.52
385.025	1.6
385.391	1.65
385.757	1.48
386.123	1.59
386.49	1.59
386.856	1.56
387.222	1.58
387.588	1.57
387.954	1.76
388.32	1.67
388.686	1.47
389.052	1.57
389.418	1.55
389.784	1.51
390.15	1.58
390.515	1.33
390.881	1.65
391.247	1.47
391.613	1.56
391.978	1.39
392.344	1.57
392.709	1.64
393.075	1.5
393.44	1.61
393.806	1.61
394.171	1.42
394.536	1.44
394.902	1.55
395.267	1.55
395.632	1.48
395.997	1.48
396.362	1.41
396.727	1.58
397.092	1.45
397.457	1.62
397.822	1.44
398.187	1.45
398.552	1.43
398.917	1.64
399.282	1.41
399.646	1.47
400.011	1.62
400.376	1.34
400.74	1.44
401.105	1.65
401.47	1.51
401.834	1.39
402.199	1.5
402.563	1.47
402.927	1.38
403.292	1.45
403.656	1.49
404.02	1.45
404.384	1.54
404.749	1.36
405.113	1.41
405.477	1.51
405.841	1.41
406.205	1.36
406.569	1.44
406.933	1.38
407.296	1.39
407.66	1.39
408.024	1.41
408.388	1.48
408.752	1.33
409.115	1.55
409.479	1.36
409.842	1.32
410.206	1.24
410.569	1.31
410.933	1.31
411.296	1.24
411.66	1.29
412.023	1.25
412.386	1.33
412.749	1.22
413.113	1.3
413.476	1.25
413.839	1.23
414.202	1.29
414.565	1.23
414.928	1.19
415.291	1.16
415.654	1.25
416.017	1.29
416.38	1.26
416.742	1.28
417.105	1.22
417.468	1.23
417.83	1.24
418.193	1.29
418.556	1.23
418.918	1.16
419.281	1.22
419.643	1.3
420.005	1.17
420.368	1.18
420.73	1.2
421.092	1.29
421.455	1.27
421.817	1.16
422.179	1.21
422.541	1.24
422.903	1.26
423.265	1.24
423.627	1.17
423.989	1.17
424.351	1.19
424.713	1.17
425.075	1.18
425.436	1.1
425.798	1.14
426.16	1.2
426.521	1.12
426.883	1.22
427.245	1.19
427.606	1.15
427.967	1.14
428.329	1.15
428.69	1.19
429.052	1.14
429.413	1.18
429.774	1.14
430.135	1.13
430.497	1.17
430.858	1.12
431.219	1.16
431.58	1.11
431.941	1.09
432.302	1.13
432.663	1.13
433.024	1.16
433.384	1.13
433.745	1.05
434.106	1.14
434.467	1.09
434.827	1.11
435.188	1.1
435.548	1.15
435.909	1.1
436.269	1.11
436.63	1.05
436.99	1.06
437.351	1.02
437.711	1.03
438.071	1.05
438.431	1.04
438.792	1.07
439.152	1.03
439.512	1.05
439.872	1.04
440.232	1.05
440.592	1.02
440.952	0.99
441.312	0.99
441.671	1.03
442.031	1.01
442.391	0.97
442.751	0.99
443.11	1.04
443.47	0.96
443.83	0.97
444.189	0.93
444.549	0.96
444.908	0.95
445.267	0.95
445.627	0.95
445.986	0.95
446.345	0.9
446.705	0.92
447.064	0.93
447.423	0.92
447.782	0.91
448.141	0.87
448.5	0.89
448.859	0.9
449.218	0.88
449.577	0.89
449.936	0.87
450.295	0.89
450.653	0.87
451.012	0.85
451.371	0.87
451.729	0.85
452.088	0.86
452.447	0.85
452.805	0.83
453.163	0.83
453.522	0.83
453.88	0.83
454.239	0.82
454.597	0.79
454.955	0.78
455.313	0.79
455.671	0.8
456.029	0.78
456.388	0.78
456.746	0.76
457.104	0.76
457.461	0.75
457.819	0.75
458.177	0.71
458.535	0.72
458.893	0.71
459.25	0.7
459.608	0.69
459.966	0.69
460.323	0.68
460.681	0.66
461.038	0.68
461.396	0.66
461.753	0.64
462.111	0.65
462.468	0.64
462.825	0.63
463.182	0.62
463.54	0.6
463.897	0.6
464.254	0.6
464.611	0.6
464.968	0.58
465.325	0.59
465.682	0.57
466.039	0.57
466.395	0.56
466.752	0.55
467.109	0.55
467.466	0.54
467.822	0.53
468.179	0.52
468.535	0.52
468.892	0.51
469.248	0.51
469.605	0.5
469.961	0.48
470.318	0.51
470.674	0.5
471.03	0.48
471.386	0.47
471.743	0.47
472.099	0.46
472.455	0.45
472.811	0.44
473.167	0.44
473.523	0.43
473.879	0.42
474.235	0.43
474.59	0.41
474.946	0.41
475.302	0.4
475.657	0.4
476.013	0.39
476.369	0.39
476.724	0.38
477.08	0.37
477.435	0.37
477.791	0.38
478.146	0.38
478.501	0.36
478.857	0.37
479.212	0.35
479.567	0.36
479.922	0.33
480.277	0.34
480.632	0.33
480.987	0.33
481.342	0.33
481.697	0.32
482.052	0.32
482.407	0.31
482.762	0.31
483.116	0.3
483.471	0.3
483.826	0.29
484.18	0.29
484.535	0.28
484.89	0.28
485.244	0.28
485.598	0.28
485.953	0.27
486.307	0.27
486.661	0.27
487.016	0.27
487.37	0.27
487.724	0.26
488.078	0.26
488.432	0.26
488.786	0.26
489.14	0.25
489.494	0.25
489.848	0.24
490.202	0.24
490.556	0.24
490.91	0.24
491.263	0.23
491.617	0.24
491.971	0.23
492.324	0.23
492.678	0.23
493.031	0.23
493.385	0.23
493.738	0.23
494.091	0.22
494.445	0.22
494.798	0.22
495.151	0.21
495.504	0.22
495.857	0.21
496.21	0.21
496.564	0.21
496.916	0.21
497.269	0.2
497.622	0.21
497.975	0.2
498.328	0.21
498.681	0.2
499.033	0.2
499.386	0.2
499.739	0.2
500.091	0.2
500.444	0.19
500.796	0.19
501.149	0.19
501.501	0.19
501.854	0.19
502.206	0.19
502.558	0.19
502.91	0.19
503.263	0.18
503.615	0.18
503.967	0.18
504.319	0.18
504.671	0.18
505.023	0.18
505.375	0.18
505.726	0.18
506.078	0.18
506.43	0.17
506.782	0.17
507.133	0.17
507.485	0.18
507.837	0.18
508.188	0.18
508.54	0.18
508.891	0.18
509.243	0.17
509.594	0.18
509.945	0.18
510.296	0.17
510.648	0.17
510.999	0.17
511.35	0.17
511.701	0.17
512.052	0.17
512.403	0.18
512.754	0.17
513.105	0.18
513.456	0.17
513.807	0.17
514.157	0.17
514.508	0.17
514.859	0.17
515.209	0.16
515.56	0.17
515.91	0.17
516.261	0.16
516.611	0.16
516.962	0.16
517.312	0.16
517.662	0.17
518.013	0.17
518.363	0.17
518.713	0.17
519.063	0.17
519.413	0.17
519.763	0.16
520.113	0.17
520.463	0.17
520.813	0.17
521.163	0.18
521.512	0.17
521.862	0.17
522.212	0.17
522.562	0.17
522.911	0.17
523.261	0.17
523.61	0.16
523.96	0.16
524.309	0.17
524.658	0.17
525.008	0.17
525.357	0.17
525.706	0.17
526.056	0.17
526.405	0.17
526.754	0.16
527.103	0.16
527.452	0.17
527.801	0.17
528.15	0.17
528.499	0.17
528.847	0.17
529.196	0.18
529.545	0.18
529.893	0.17
530.242	0.18
530.591	0.18
530.939	0.18
531.288	0.18
531.636	0.18
531.985	0.18
532.333	0.18
532.681	0.18
533.029	0.17
533.378	0.18
533.726	0.17
534.074	0.18
534.422	0.17
534.77	0.18
535.118	0.18
535.466	0.17
535.814	0.17
536.162	0.18
536.509	0.18
536.857	0.17
537.205	0.18
537.552	0.18
537.9	0.18
538.248	0.18
538.595	0.19
538.943	0.18
539.29	0.18
539.637	0.18
539.985	0.18
540.332	0.18
540.679	0.17
541.026	0.18
541.373	0.19
541.721	0.17
542.068	0.18
542.415	0.17
542.762	0.16
543.108	0.16
543.455	0.16
543.802	0.16
544.149	0.17
544.496	0.17
544.842	0.16
545.189	0.16
545.535	0.16
545.882	0.17
546.228	0.17
546.575	0.17
546.921	0.16
547.267	0.16
547.614	0.17
547.96	0.17
548.306	0.17
548.652	0.17
548.998	0.17
549.344	0.17
549.69	0.16
550.036	0.17
550.382	0.17
550.728	0.17
551.074	0.17
551.42	0.18
551.765	0.18
552.111	0.17
552.457	0.18
552.802	0.18
553.148	0.17
553.493	0.17
553.839	0.18
554.184	0.18
554.529	0.17
554.875	0.18
555.22	0.18
555.565	0.18
555.91	0.18
556.255	0.18
556.6	0.18
556.945	0.17
557.29	0.18
557.635	0.18
557.98	0.18
558.325	0.17
558.67	0.18
559.014	0.18
559.359	0.18
559.704	0.18
560.048	0.17
560.393	0.18
560.737	0.17
561.082	0.17
561.426	0.17
561.77	0.17
562.115	0.16
562.459	0.17
562.803	0.17
563.147	0.17
563.491	0.17
563.835	0.17
564.179	0.17
564.523	0.18
564.867	0.18
565.211	0.17
565.555	0.18
565.899	0.18
566.242	0.18
566.586	0.17
566.93	0.18
567.273	0.18
567.617	0.18
567.96	0.18
568.304	0.18
568.647	0.18
568.99	0.18
569.334	0.19
569.677	0.19
570.02	0.18
570.363	0.18
570.706	0.18
571.049	0.17
571.392	0.18
571.735	0.17
572.078	0.17
572.421	0.18
572.764	0.18
573.106	0.18
573.449	0.17
573.792	0.17
574.134	0.17
574.477	0.18
574.819	0.17
575.162	0.17
575.504	0.17
575.847	0.18
576.189	0.17
576.531	0.18
576.873	0.17
577.215	0.18
577.558	0.18
577.9	0.17
578.242	0.18
578.584	0.18
578.926	0.18
579.267	0.18
579.609	0.18
579.951	0.17
580.293	0.18
580.634	0.18
580.976	0.18
581.318	0.18
581.659	0.17
582.001	0.18
582.342	0.17
582.683	0.18
583.025	0.17
583.366	0.18
583.707	0.17
584.049	0.17
584.39	0.17
584.731	0.17
585.072	0.17
585.413	0.18
585.754	0.18
586.095	0.18
586.435	0.18
586.776	0.18
587.117	0.18
587.458	0.17
587.798	0.18
588.139	0.18
588.48	0.17
588.82	0.17
589.161	0.17
589.501	0.17
589.841	0.17
590.182	0.16
590.522	0.16
590.862	0.17
591.202	0.17
591.542	0.17
591.882	0.17
592.222	0.17
592.562	0.17
592.902	0.17
593.242	0.17
593.582	0.17
593.922	0.17
594.261	0.17
594.601	0.17
594.941	0.17
595.28	0.18
595.62	0.17
595.959	0.17
596.299	0.17
596.638	0.17
596.977	0.17
597.317	0.17
597.656	0.18
597.995	0.17
598.334	0.17
598.673	0.17
599.012	0.17
599.351	0.17
599.69	0.17
600.029	0.17
600.368	0.17
600.707	0.17
601.046	0.17
601.384	0.18
601.723	0.17
602.061	0.16
602.4	0.17
602.738	0.17
603.077	0.17
603.415	0.17
603.754	0.17
604.092	0.17
604.43	0.16
604.768	0.17
605.107	0.17
605.445	0.17
605.783	0.17
606.121	0.17
606.459	0.17
606.796	0.17
607.134	0.17
607.472	0.17
607.81	0.17
608.148	0.17
608.485	0.17
608.823	0.17
609.16	0.17
609.498	0.17
609.835	0.17
610.173	0.17
610.51	0.17
610.847	0.17
611.185	0.17
611.522	0.17
611.859	0.17
612.196	0.17
612.533	0.18
612.87	0.18
613.207	0.18
613.544	0.17
613.881	0.18
614.217	0.17
614.554	0.18
614.891	0.18
615.228	0.18
615.564	0.17
615.901	0.17
616.237	0.17
616.574	0.18
616.91	0.18
617.246	0.17
617.583	0.18
617.919	0.18
618.255	0.18
618.591	0.17
618.927	0.18
619.263	0.18
619.599	0.18
619.935	0.18
620.271	0.18
620.607	0.18
620.943	0.17
621.279	0.17
621.614	0.17
621.95	0.18
622.286	0.17
622.621	0.16
622.957	0.16
623.292	0.16
623.627	0.16
623.963	0.16
624.298	0.17
624.633	0.16
624.968	0.16
625.304	0.16
625.639	0.16
625.974	0.16
626.309	0.15
626.644	0.17
626.979	0.16
627.313	0.16
627.648	0.16
627.983	0.16
628.318	0.15
628.652	0.15
628.987	0.16
629.321	0.15
629.656	0.16
629.99	0.15
630.325	0.15
630.659	0.16
630.993	0.16
631.327	0.16
631.662	0.15
631.996	0.15
632.33	0.15
632.664	0.16
632.998	0.15
633.332	0.15
633.666	0.15
633.999	0.15
634.333	0.15
634.667	0.15
635.001	0.15
635.334	0.15
635.668	0.15
636.001	0.15
636.335	0.15
636.668	0.15
637.001	0.15
637.335	0.15
637.668	0.14
638.001	0.14
638.334	0.14
638.668	0.14
639.001	0.15
639.334	0.14
639.667	0.14
639.999	0.14
640.332	0.14
640.665	0.13
640.998	0.14
641.331	0.14
641.663	0.13
641.996	0.14
642.328	0.14
642.661	0.14
642.993	0.14
643.326	0.14
643.658	0.14
643.99	0.13
644.323	0.13
644.655	0.14
644.987	0.14
645.319	0.14
645.651	0.14
645.983	0.14
646.315	0.13
646.647	0.14
646.979	0.15
647.31	0.14
647.642	0.14
647.974	0.14
648.305	0.15
648.637	0.14
648.968	0.15
649.3	0.15
649.631	0.15
649.963	0.14
650.294	0.14
650.625	0.14
650.957	0.15
651.288	0.15
651.619	0.15
651.95	0.14
652.281	0.14
652.612	0.14
652.943	0.15
653.274	0.15
653.604	0.15
653.935	0.14
654.266	0.14
654.596	0.14
654.927	0.14
655.258	0.15
655.588	0.15
655.918	0.14
656.249	0.13
656.579	0.14
656.909	0.14
657.24	0.14
657.57	0.15
657.9	0.14
658.23	0.14
658.56	0.15
658.89	0.15
659.22	0.14
659.55	0.14
659.88	0.15
660.209	0.14
660.539	0.16
660.869	0.15
661.198	0.15
661.528	0.15
661.857	0.15
662.187	0.15
662.516	0.15
662.846	0.14
663.175	0.14
663.504	0.14
663.833	0.13
664.163	0.14
664.492	0.14
664.821	0.13
665.15	0.13
665.479	0.14
665.807	0.13
666.136	0.14
666.465	0.13
666.794	0.13
667.122	0.13
667.451	0.13
667.78	0.13
668.108	0.13
668.437	0.13
668.765	0.13
669.093	0.14
669.422	0.13
669.75	0.13
670.078	0.14
670.406	0.13
670.734	0.13
671.062	0.13
671.39	0.13
671.718	0.13
672.046	0.14
672.374	0.13
672.702	0.13
673.029	0.13
673.357	0.13
673.685	0.14
674.012	0.14
674.34	0.13
674.667	0.14
674.995	0.14
675.322	0.13
675.649	0.13
675.977	0.13
676.304	0.13
676.631	0.13
676.958	0.12
677.285	0.13
677.612	0.12
677.939	0.12
678.266	0.13
678.593	0.13
678.92	0.12
679.246	0.12
679.573	0.12
679.9	0.12
680.226	0.12
680.553	0.12
680.879	0.12
681.206	0.12
681.532	0.11
681.858	0.11
682.184	0.11
682.511	0.12
682.837	0.11
683.163	0.12
683.489	0.11
683.815	0.12
684.141	0.11
684.467	0.11
684.793	0.11
685.118	0.11
685.444	0.12
685.77	0.11
686.095	0.12
686.421	0.11
686.746	0.12
687.072	0.12
687.397	0.12
687.723	0.12
688.048	0.12
688.373	0.12
688.698	0.12
689.023	0.12
689.349	0.12
689.674	0.12
689.999	0.11
690.323	0.11
690.648	0.11
690.973	0.11
691.298	0.11
691.623	0.11
691.947	0.11
692.272	0.11
692.596	0.11
692.921	0.11
693.245	0.11
693.57	0.11
693.894	0.11
694.218	0.11
694.543	0.1
694.867	0.11
695.191	0.11
695.515	0.11
695.839	0.1
696.163	0.1
696.487	0.11
696.811	0.1
697.135	0.11
697.458	0.1
697.782	0.11
698.106	0.1
698.429	0.1
698.753	0.1
699.076	0.1
699.4	0.1
699.723	0.11
700.046	0.1
700.37	0.11
700.693	0.1
701.016	0.1
701.339	0.11
701.662	0.11
701.985	0.11
702.308	0.1
702.631	0.11
702.954	0.11
703.277	0.11
703.599	0.1
703.922	0.1
704.245	0.09
704.567	0.1
704.89	0.1
705.212	0.1
705.535	0.09
705.857	0.09
706.179	0.09
706.502	0.09
706.824	0.09
707.146	0.09
707.468	0.09
707.79	0.09
708.112	0.1
708.434	0.09
708.756	0.1
709.078	0.1
709.399	0.09
709.721	0.09
710.043	0.1
710.364	0.09
710.686	0.1
711.007	0.09
711.329	0.11
711.65	0.09
711.972	0.09
712.293	0.1
712.614	0.1
712.935	0.09
713.256	0.09
713.577	0.1
713.898	0.1
714.219	0.1
714.54	0.09
714.861	0.09
715.182	0.09
715.503	0.09
715.823	0.09
716.144	0.08
716.464	0.08
716.785	0.08
717.105	0.08
717.426	0.09
717.746	0.08
718.066	0.08
718.387	0.08
718.707	0.08
719.027	0.09
719.347	0.07
719.667	0.08
719.987	0.07
720.307	0.07
720.627	0.08
720.947	0.08
721.266	0.08
721.586	0.06
721.906	0.08
722.225	0.07
722.545	0.07
722.864	0.07
723.184	0.07
723.503	0.07
