Data from 12-12-AQDScycling_Absorbance__876__00876.txt Node

Date: Tue Dec 12 14:35:44 EST 2023
User: kyuminlee
Spectrometer: FLMS00943
Trigger mode: 0
Integration Time (sec): 1.000000E-1
Scans to average: 1
Electric dark correction enabled: true
Nonlinearity correction enabled: false
Boxcar width: 0
XAxis mode: Wavelengths
Number of Pixels in Spectrum: 2048
>>>>>Begin Spectral Data<<<<<
179.651	-0
180.037	-0
180.424	-0
180.81	1.17
181.197	1.11
181.583	-0
181.97	-0.26
182.356	-0
182.743	-0
183.129	0.07
183.515	0.59
183.901	-2.2
184.288	0.17
184.674	0.06
185.06	-0
185.446	-0
185.832	-0
186.218	0.2
186.604	1.24
186.99	-0.55
187.376	0.21
187.762	-0.16
188.148	0.2
188.534	-0.11
188.92	0.14
189.305	0.08
189.691	0.26
190.077	0.04
190.463	0.27
190.848	0.15
191.234	0.17
191.619	0.04
192.005	0.09
192.391	0.18
192.776	0.25
193.161	0.12
193.547	0.21
193.932	0.2
194.318	0.12
194.703	0.2
195.088	0.1
195.473	0.11
195.859	0.17
196.244	0.13
196.629	0.24
197.014	0.14
197.399	0.31
197.784	0.17
198.169	0.21
198.554	0.23
198.939	0.2
199.324	0.05
199.709	0.09
200.094	0.14
200.478	0.2
200.863	0.23
201.248	0.09
201.633	0.18
202.017	0.19
202.402	0.17
202.787	0.2
203.171	0.1
203.556	0.17
203.94	0.16
204.325	0.33
204.709	0.28
205.093	0.09
205.478	0.17
205.862	0.04
206.246	0.09
206.631	0.11
207.015	0.26
207.399	0.24
207.783	0.09
208.167	0.17
208.551	0.16
208.935	0.24
209.319	0.17
209.703	0.09
210.087	0.34
210.471	0.08
210.855	0.1
211.239	0.34
211.623	0.23
212.007	0.28
212.39	0.31
212.774	0.1
213.158	0.11
213.541	0.39
213.925	0.28
214.309	0.46
214.692	0.32
215.076	0.21
215.459	0.38
215.842	0.12
216.226	0.23
216.609	0.27
216.993	0.21
217.376	0.49
217.759	0.27
218.142	0.42
218.525	0.46
218.909	0.38
219.292	0.36
219.675	0.71
220.058	0.52
220.441	0.39
220.824	0.65
221.207	0.64
221.59	0.48
221.973	0.52
222.355	0.6
222.738	0.79
223.121	0.59
223.504	0.67
223.886	0.64
224.269	0.62
224.652	0.65
225.034	0.88
225.417	0.78
225.799	0.95
226.182	0.9
226.564	0.83
226.947	0.69
227.329	1.02
227.711	1.11
228.094	1.05
228.476	0.85
228.858	0.84
229.24	0.92
229.623	0.85
230.005	0.88
230.387	0.86
230.769	0.79
231.151	0.98
231.533	0.89
231.915	0.93
232.297	1.25
232.679	0.97
233.061	0.94
233.442	1.08
233.824	1.06
234.206	1.2
234.588	1.06
234.969	1.26
235.351	1
235.733	1.1
236.114	1.26
236.496	1.17
236.877	1.1
237.259	0.99
237.64	1.09
238.022	0.98
238.403	1.04
238.784	0.95
239.165	1.05
239.547	1.21
239.928	1.27
240.309	1.09
240.69	1.08
241.071	1.1
241.452	1.05
241.834	1.13
242.215	1.07
242.595	1.01
242.976	1.19
243.357	1.06
243.738	1.02
244.119	1.51
244.5	1.09
244.881	1.22
245.261	1.12
245.642	1.13
246.023	1.14
246.403	1.23
246.784	1.16
247.164	1.32
247.545	1.36
247.925	1.37
248.306	1.27
248.686	1.49
249.067	1.31
249.447	1.33
249.827	1.74
250.207	1.44
250.588	1.41
250.968	1.54
251.348	1.38
251.728	1.47
252.108	1.4
252.488	1.43
252.868	1.41
253.248	1.33
253.628	1.48
254.008	1.47
254.388	1.28
254.768	1.33
255.147	1.41
255.527	1.41
255.907	1.34
256.287	1.51
256.666	1.42
257.046	1.43
257.425	1.46
257.805	1.39
258.184	1.36
258.564	1.4
258.943	1.44
259.323	1.46
259.702	1.41
260.081	1.43
260.461	1.53
260.84	1.53
261.219	2.31
261.598	1.61
261.977	1.59
262.356	1.56
262.736	1.52
263.115	1.6
263.494	1.43
263.873	1.39
264.251	1.4
264.63	1.41
265.009	1.49
265.388	1.46
265.767	1.45
266.145	1.58
266.524	1.49
266.903	1.42
267.281	1.36
267.66	1.6
268.039	1.45
268.417	1.41
268.796	1.36
269.174	1.46
269.552	1.24
269.931	1.45
270.309	1.37
270.687	1.69
271.066	1.62
271.444	1.56
271.822	1.45
272.2	1.29
272.578	1.36
272.956	1.55
273.334	1.35
273.712	1.52
274.09	1.47
274.468	1.4
274.846	1.39
275.224	1.34
275.602	1.35
275.98	1.58
276.357	1.37
276.735	1.44
277.113	1.52
277.49	1.35
277.868	1.27
278.246	1.39
278.623	1.42
279.001	1.28
279.378	1.52
279.756	1.59
280.133	1.57
280.51	1.43
280.888	1.59
281.265	1.46
281.642	1.47
282.019	1.59
282.396	1.54
282.773	1.42
283.151	1.45
283.528	1.43
283.905	1.41
284.282	1.57
284.659	1.64
285.035	1.41
285.412	1.39
285.789	1.47
286.166	1.42
286.543	1.43
286.919	1.56
287.296	1.35
287.673	1.7
288.049	1.62
288.426	1.56
288.802	1.61
289.179	1.48
289.555	1.75
289.932	1.51
290.308	1.38
290.684	1.49
291.061	1.48
291.437	1.59
291.813	1.38
292.189	1.37
292.565	1.26
292.942	1.36
293.318	1.36
293.694	1.48
294.07	1.34
294.446	1.41
294.822	1.5
295.197	1.35
295.573	1.46
295.949	1.42
296.325	1.54
296.701	1.42
297.076	1.49
297.452	1.61
297.828	1.42
298.203	1.55
298.579	1.45
298.954	1.43
299.33	1.36
299.705	1.44
300.081	1.42
300.456	1.42
300.831	1.32
301.206	1.41
301.582	1.43
301.957	1.42
302.332	1.4
302.707	1.27
303.082	1.3
303.457	1.33
303.832	1.34
304.207	1.21
304.582	1.3
304.957	1.3
305.332	1.23
305.707	1.15
306.082	1.19
306.456	1.24
306.831	1.15
307.206	1.18
307.58	1.16
307.955	1.13
308.33	1.13
308.704	1.13
309.079	1.2
309.453	1.19
309.828	1.15
310.202	1.11
310.576	1.07
310.951	1.15
311.325	1.06
311.699	1.05
312.073	1.13
312.447	1.04
312.821	1.1
313.196	1.09
313.57	1.03
313.944	1.04
314.317	0.99
314.691	1.13
315.065	1.02
315.439	1.06
315.813	1.05
316.187	1.01
316.56	1.06
316.934	1.06
317.308	1.03
317.681	1.04
318.055	1.01
318.428	1.06
318.802	1.1
319.175	1.03
319.549	1.04
319.922	1
320.295	1.02
320.669	1.1
321.042	1.06
321.415	1.1
321.788	1.06
322.162	1.01
322.535	1.07
322.908	1.03
323.281	1.02
323.654	1.09
324.027	0.98
324.4	1.06
324.773	1.06
325.145	1.07
325.518	1.04
325.891	1.01
326.264	1.14
326.636	1.04
327.009	0.98
327.382	1.04
327.754	1.15
328.127	1.06
328.499	1.04
328.872	1.09
329.244	1.05
329.616	1.01
329.989	1.11
330.361	1.08
330.733	1.06
331.106	1.02
331.478	1.11
331.85	1.07
332.222	1.1
332.594	1.15
332.966	1.14
333.338	1.22
333.71	1.18
334.082	1.17
334.454	1.1
334.826	1.16
335.197	1.2
335.569	1.18
335.941	1.11
336.312	1.1
336.684	1.11
337.056	1.13
337.427	1.17
337.799	1.18
338.17	1.17
338.542	1.14
338.913	1.17
339.284	1.23
339.656	1.18
340.027	1.19
340.398	1.2
340.769	1.17
341.141	1.3
341.512	1.29
341.883	1.21
342.254	1.22
342.625	1.19
342.996	1.19
343.367	1.25
343.738	1.22
344.108	1.18
344.479	1.25
344.85	1.14
345.221	1.31
345.591	1.16
345.962	1.19
346.333	1.23
346.703	1.15
347.074	1.15
347.444	1.21
347.815	1.19
348.185	1.19
348.556	1.23
348.926	1.28
349.296	1.28
349.666	1.32
350.037	1.26
350.407	1.16
350.777	1.28
351.147	1.29
351.517	1.27
351.887	1.34
352.257	1.36
352.627	1.19
352.997	1.23
353.367	1.33
353.737	1.37
354.106	1.46
354.476	1.35
354.846	1.51
355.216	1.39
355.585	1.42
355.955	1.45
356.324	1.51
356.694	1.41
357.063	1.47
357.433	1.42
357.802	1.43
358.171	1.48
358.541	1.46
358.91	1.51
359.279	1.53
359.648	1.39
360.017	1.46
360.387	1.55
360.756	1.44
361.125	1.56
361.494	1.58
361.863	1.45
362.231	1.46
362.6	1.53
362.969	1.65
363.338	1.49
363.707	1.77
364.075	1.71
364.444	1.4
364.813	1.5
365.181	1.67
365.55	1.51
365.918	1.93
366.287	1.58
366.655	1.74
367.024	1.57
367.392	1.59
367.76	1.53
368.128	1.59
368.497	1.6
368.865	1.68
369.233	1.58
369.601	1.46
369.969	1.47
370.337	1.51
370.705	1.58
371.073	1.56
371.441	1.56
371.809	1.51
372.177	1.49
372.544	1.67
372.912	1.57
373.28	1.52
373.647	1.56
374.015	1.58
374.383	1.71
374.75	1.76
375.118	1.67
375.485	1.67
375.853	1.75
376.22	1.63
376.587	1.62
376.955	1.58
377.322	1.6
377.689	1.58
378.056	1.52
378.423	1.51
378.79	1.65
379.157	1.6
379.524	1.6
379.891	1.49
380.258	1.82
380.625	1.39
380.992	1.55
381.359	1.73
381.726	1.73
382.092	1.55
382.459	1.49
382.826	1.54
383.192	1.57
383.559	1.64
383.925	1.53
384.292	1.46
384.658	1.91
385.025	1.61
385.391	1.67
385.757	1.64
386.123	1.63
386.49	1.55
386.856	1.63
387.222	1.73
387.588	1.53
387.954	1.8
388.32	1.66
388.686	1.71
389.052	1.45
389.418	1.64
389.784	1.53
390.15	1.76
390.515	1.48
390.881	1.64
391.247	1.45
391.613	1.76
391.978	1.53
392.344	1.85
392.709	1.77
393.075	1.56
393.44	1.53
393.806	1.64
394.171	1.54
394.536	1.47
394.902	1.66
395.267	1.54
395.632	1.49
395.997	1.46
396.362	1.45
396.727	1.62
397.092	1.68
397.457	1.57
397.822	1.52
398.187	1.79
398.552	1.5
398.917	1.51
399.282	1.53
399.646	1.55
400.011	1.86
400.376	1.54
400.74	1.51
401.105	1.54
401.47	1.8
401.834	1.5
402.199	1.44
402.563	1.63
402.927	1.49
403.292	1.57
403.656	1.59
404.02	1.7
404.384	1.84
404.749	1.52
405.113	1.74
405.477	1.7
405.841	1.61
406.205	1.64
406.569	1.57
406.933	1.56
407.296	1.55
407.66	1.53
408.024	1.56
408.388	1.71
408.752	1.54
409.115	1.82
409.479	1.57
409.842	1.45
410.206	1.55
410.569	1.57
410.933	1.6
411.296	1.47
411.66	1.59
412.023	1.48
412.386	1.57
412.749	1.56
413.113	1.61
413.476	1.55
413.839	1.53
414.202	1.68
414.565	1.48
414.928	1.47
415.291	1.38
415.654	1.67
416.017	1.58
416.38	1.41
416.742	1.39
417.105	1.34
417.468	1.43
417.83	1.69
418.193	1.57
418.556	1.51
418.918	1.42
419.281	1.52
419.643	1.64
420.005	1.49
420.368	1.46
420.73	1.53
421.092	1.58
421.455	1.58
421.817	1.38
422.179	1.45
422.541	1.49
422.903	1.65
423.265	1.57
423.627	1.6
423.989	1.52
424.351	1.46
424.713	1.62
425.075	1.47
425.436	1.65
425.798	1.5
426.16	1.57
426.521	1.46
426.883	1.57
427.245	1.55
427.606	1.42
427.967	1.4
428.329	1.49
428.69	1.5
429.052	1.48
429.413	1.53
429.774	1.6
430.135	1.57
430.497	1.64
430.858	1.48
431.219	1.52
431.58	1.51
431.941	1.47
432.302	1.41
432.663	1.48
433.024	1.54
433.384	1.47
433.745	1.44
434.106	1.52
434.467	1.52
434.827	1.41
435.188	1.49
435.548	1.62
435.909	1.5
436.269	1.49
436.63	1.52
436.99	1.48
437.351	1.34
437.711	1.47
438.071	1.36
438.431	1.41
438.792	1.37
439.152	1.43
439.512	1.42
439.872	1.41
440.232	1.5
440.592	1.41
440.952	1.41
441.312	1.35
441.671	1.38
442.031	1.32
442.391	1.37
442.751	1.43
443.11	1.36
443.47	1.41
443.83	1.31
444.189	1.31
444.549	1.25
444.908	1.28
445.267	1.28
445.627	1.37
445.986	1.3
446.345	1.26
446.705	1.29
447.064	1.29
447.423	1.25
447.782	1.33
448.141	1.25
448.5	1.19
448.859	1.23
449.218	1.23
449.577	1.23
449.936	1.22
450.295	1.23
450.653	1.23
451.012	1.22
451.371	1.19
451.729	1.16
452.088	1.17
452.447	1.16
452.805	1.18
453.163	1.14
453.522	1.14
453.88	1.14
454.239	1.15
454.597	1.11
454.955	1.1
455.313	1.1
455.671	1.09
456.029	1.07
456.388	1.06
456.746	1.06
457.104	1.04
457.461	1.03
457.819	1.03
458.177	1.01
458.535	0.98
458.893	0.99
459.25	0.96
459.608	0.97
459.966	0.94
460.323	0.94
460.681	0.92
461.038	0.91
461.396	0.89
461.753	0.87
462.111	0.87
462.468	0.85
462.825	0.84
463.182	0.84
463.54	0.82
463.897	0.82
464.254	0.81
464.611	0.8
464.968	0.78
465.325	0.78
465.682	0.76
466.039	0.75
466.395	0.73
466.752	0.73
467.109	0.71
467.466	0.72
467.822	0.7
468.179	0.68
468.535	0.68
468.892	0.67
469.248	0.66
469.605	0.65
469.961	0.65
470.318	0.63
470.674	0.62
471.03	0.61
471.386	0.6
471.743	0.58
472.099	0.57
472.455	0.58
472.811	0.56
473.167	0.56
473.523	0.54
473.879	0.53
474.235	0.53
474.59	0.52
474.946	0.51
475.302	0.52
475.657	0.5
476.013	0.48
476.369	0.48
476.724	0.48
477.08	0.47
477.435	0.46
477.791	0.46
478.146	0.45
478.501	0.43
478.857	0.43
479.212	0.43
479.567	0.41
479.922	0.4
480.277	0.39
480.632	0.39
480.987	0.39
481.342	0.38
481.697	0.36
482.052	0.37
482.407	0.35
482.762	0.35
483.116	0.34
483.471	0.34
483.826	0.33
484.18	0.33
484.535	0.32
484.89	0.31
485.244	0.31
485.598	0.31
485.953	0.29
486.307	0.29
486.661	0.29
487.016	0.28
487.37	0.28
487.724	0.28
488.078	0.27
488.432	0.27
488.786	0.26
489.14	0.26
489.494	0.25
489.848	0.25
490.202	0.25
490.556	0.24
490.91	0.24
491.263	0.24
491.617	0.24
491.971	0.23
492.324	0.22
492.678	0.23
493.031	0.23
493.385	0.22
493.738	0.22
494.091	0.21
494.445	0.21
494.798	0.2
495.151	0.21
495.504	0.2
495.857	0.2
496.21	0.19
496.564	0.19
496.916	0.2
497.269	0.18
497.622	0.19
497.975	0.18
498.328	0.19
498.681	0.18
499.033	0.18
499.386	0.17
499.739	0.17
500.091	0.18
500.444	0.17
500.796	0.16
501.149	0.16
501.501	0.16
501.854	0.16
502.206	0.16
502.558	0.16
502.91	0.16
503.263	0.16
503.615	0.16
503.967	0.15
504.319	0.15
504.671	0.15
505.023	0.15
505.375	0.15
505.726	0.14
506.078	0.14
506.43	0.15
506.782	0.14
507.133	0.15
507.485	0.15
507.837	0.16
508.188	0.15
508.54	0.15
508.891	0.15
509.243	0.14
509.594	0.14
509.945	0.14
510.296	0.14
510.648	0.14
510.999	0.13
511.35	0.13
511.701	0.14
512.052	0.14
512.403	0.14
512.754	0.14
513.105	0.13
513.456	0.13
513.807	0.13
514.157	0.14
514.508	0.13
514.859	0.13
515.209	0.13
515.56	0.13
515.91	0.13
516.261	0.13
516.611	0.13
516.962	0.14
517.312	0.13
517.662	0.13
518.013	0.13
518.363	0.13
518.713	0.13
519.063	0.13
519.413	0.13
519.763	0.13
520.113	0.13
520.463	0.13
520.813	0.14
521.163	0.14
521.512	0.13
521.862	0.13
522.212	0.13
522.562	0.13
522.911	0.14
523.261	0.12
523.61	0.13
523.96	0.13
524.309	0.13
524.658	0.13
525.008	0.13
525.357	0.13
525.706	0.13
526.056	0.13
526.405	0.13
526.754	0.13
527.103	0.13
527.452	0.13
527.801	0.13
528.15	0.13
528.499	0.14
528.847	0.13
529.196	0.14
529.545	0.14
529.893	0.14
530.242	0.14
530.591	0.14
530.939	0.15
531.288	0.14
531.636	0.14
531.985	0.14
532.333	0.14
532.681	0.13
533.029	0.13
533.378	0.13
533.726	0.14
534.074	0.14
534.422	0.13
534.77	0.14
535.118	0.14
535.466	0.13
535.814	0.13
536.162	0.14
536.509	0.13
536.857	0.13
537.205	0.14
537.552	0.14
537.9	0.14
538.248	0.13
538.595	0.14
538.943	0.14
539.29	0.14
539.637	0.13
539.985	0.14
540.332	0.14
540.679	0.14
541.026	0.14
541.373	0.13
541.721	0.13
542.068	0.13
542.415	0.14
542.762	0.13
543.108	0.13
543.455	0.13
543.802	0.14
544.149	0.14
544.496	0.13
544.842	0.13
545.189	0.12
545.535	0.13
545.882	0.13
546.228	0.12
546.575	0.12
546.921	0.12
547.267	0.12
547.614	0.12
547.96	0.12
548.306	0.12
548.652	0.12
548.998	0.13
549.344	0.13
549.69	0.14
550.036	0.13
550.382	0.12
550.728	0.12
551.074	0.13
551.42	0.12
551.765	0.13
552.111	0.14
552.457	0.14
552.802	0.13
553.148	0.13
553.493	0.13
553.839	0.14
554.184	0.14
554.529	0.12
554.875	0.15
555.22	0.14
555.565	0.14
555.91	0.14
556.255	0.13
556.6	0.14
556.945	0.13
557.29	0.14
557.635	0.13
557.98	0.13
558.325	0.14
558.67	0.13
559.014	0.14
559.359	0.14
559.704	0.13
560.048	0.13
560.393	0.14
560.737	0.12
561.082	0.13
561.426	0.12
561.77	0.13
562.115	0.13
562.459	0.13
562.803	0.13
563.147	0.13
563.491	0.13
563.835	0.13
564.179	0.13
564.523	0.12
564.867	0.12
565.211	0.13
565.555	0.13
565.899	0.14
566.242	0.13
566.586	0.13
566.93	0.14
567.273	0.13
567.617	0.14
567.96	0.14
568.304	0.14
568.647	0.13
568.99	0.13
569.334	0.14
569.677	0.13
570.02	0.14
570.363	0.14
570.706	0.13
571.049	0.14
571.392	0.14
571.735	0.13
572.078	0.14
572.421	0.14
572.764	0.14
573.106	0.14
573.449	0.13
573.792	0.13
574.134	0.13
574.477	0.14
574.819	0.14
575.162	0.13
575.504	0.12
575.847	0.14
576.189	0.13
576.531	0.13
576.873	0.14
577.215	0.13
577.558	0.14
577.9	0.12
578.242	0.14
578.584	0.13
578.926	0.13
579.267	0.13
579.609	0.13
579.951	0.13
580.293	0.13
580.634	0.14
580.976	0.13
581.318	0.13
581.659	0.13
582.001	0.14
582.342	0.13
582.683	0.14
583.025	0.13
583.366	0.13
583.707	0.13
584.049	0.13
584.39	0.13
584.731	0.13
585.072	0.13
585.413	0.13
585.754	0.14
586.095	0.13
586.435	0.14
586.776	0.13
587.117	0.13
587.458	0.13
587.798	0.13
588.139	0.13
588.48	0.13
588.82	0.13
589.161	0.13
589.501	0.13
589.841	0.12
590.182	0.13
590.522	0.13
590.862	0.13
591.202	0.13
591.542	0.13
591.882	0.12
592.222	0.13
592.562	0.14
592.902	0.13
593.242	0.13
593.582	0.13
593.922	0.13
594.261	0.12
594.601	0.13
594.941	0.12
595.28	0.13
595.62	0.12
595.959	0.13
596.299	0.13
596.638	0.13
596.977	0.13
597.317	0.13
597.656	0.13
597.995	0.13
598.334	0.14
598.673	0.13
599.012	0.13
599.351	0.14
599.69	0.13
600.029	0.14
600.368	0.14
600.707	0.14
601.046	0.13
601.384	0.14
601.723	0.14
602.061	0.13
602.4	0.13
602.738	0.14
603.077	0.13
603.415	0.12
603.754	0.13
604.092	0.13
604.43	0.13
604.768	0.13
605.107	0.14
605.445	0.13
605.783	0.13
606.121	0.12
606.459	0.13
606.796	0.13
607.134	0.12
607.472	0.13
607.81	0.13
608.148	0.13
608.485	0.13
608.823	0.13
609.16	0.12
609.498	0.13
609.835	0.13
610.173	0.13
610.51	0.13
610.847	0.13
611.185	0.13
611.522	0.13
611.859	0.13
612.196	0.13
612.533	0.13
612.87	0.14
613.207	0.14
613.544	0.14
613.881	0.14
614.217	0.14
614.554	0.13
614.891	0.14
615.228	0.13
615.564	0.13
615.901	0.14
616.237	0.14
616.574	0.14
616.91	0.14
617.246	0.13
617.583	0.14
617.919	0.14
618.255	0.15
618.591	0.13
618.927	0.14
619.263	0.14
619.599	0.14
619.935	0.13
620.271	0.14
620.607	0.14
620.943	0.14
621.279	0.13
621.614	0.13
621.95	0.14
622.286	0.13
622.621	0.13
622.957	0.13
623.292	0.12
623.627	0.13
623.963	0.13
624.298	0.13
624.633	0.13
624.968	0.12
625.304	0.12
625.639	0.13
625.974	0.13
626.309	0.13
626.644	0.13
626.979	0.12
627.313	0.13
627.648	0.12
627.983	0.13
628.318	0.12
628.652	0.12
628.987	0.12
629.321	0.13
629.656	0.12
629.99	0.11
630.325	0.13
630.659	0.12
630.993	0.11
631.327	0.12
631.662	0.11
631.996	0.11
632.33	0.11
632.664	0.12
632.998	0.11
633.332	0.11
633.666	0.11
633.999	0.11
634.333	0.11
634.667	0.11
635.001	0.11
635.334	0.11
635.668	0.1
636.001	0.11
636.335	0.11
636.668	0.11
637.001	0.1
637.335	0.11
637.668	0.11
638.001	0.11
638.334	0.11
638.668	0.1
639.001	0.11
639.334	0.1
639.667	0.11
639.999	0.11
640.332	0.1
640.665	0.1
640.998	0.11
641.331	0.11
641.663	0.11
641.996	0.11
642.328	0.11
642.661	0.11
642.993	0.11
643.326	0.11
643.658	0.11
643.99	0.11
644.323	0.1
644.655	0.12
644.987	0.12
645.319	0.12
645.651	0.11
645.983	0.12
646.315	0.11
646.647	0.12
646.979	0.12
647.31	0.12
647.642	0.12
647.974	0.11
648.305	0.12
648.637	0.11
648.968	0.11
649.3	0.12
649.631	0.11
649.963	0.11
650.294	0.11
650.625	0.11
650.957	0.12
651.288	0.12
651.619	0.12
651.95	0.11
652.281	0.12
652.612	0.11
652.943	0.11
653.274	0.12
653.604	0.11
653.935	0.1
654.266	0.12
654.596	0.12
654.927	0.11
655.258	0.12
655.588	0.12
655.918	0.11
656.249	0.09
656.579	0.1
656.909	0.11
657.24	0.11
657.57	0.11
657.9	0.11
658.23	0.11
658.56	0.11
658.89	0.12
659.22	0.11
659.55	0.1
659.88	0.11
660.209	0.11
660.539	0.12
660.869	0.11
661.198	0.11
661.528	0.11
661.857	0.11
662.187	0.11
662.516	0.11
662.846	0.11
663.175	0.11
663.504	0.11
663.833	0.11
664.163	0.11
664.492	0.1
664.821	0.11
665.15	0.1
665.479	0.1
665.807	0.11
666.136	0.1
666.465	0.1
666.794	0.1
667.122	0.1
667.451	0.11
667.78	0.11
668.108	0.11
668.437	0.11
668.765	0.11
669.093	0.11
669.422	0.11
669.75	0.11
670.078	0.11
670.406	0.11
670.734	0.11
671.062	0.11
671.39	0.11
671.718	0.11
672.046	0.11
672.374	0.1
672.702	0.11
673.029	0.1
673.357	0.1
673.685	0.11
674.012	0.11
674.34	0.11
674.667	0.11
674.995	0.11
675.322	0.1
675.649	0.1
675.977	0.11
676.304	0.11
676.631	0.1
676.958	0.1
677.285	0.1
677.612	0.1
677.939	0.1
678.266	0.1
678.593	0.1
678.92	0.1
679.246	0.1
679.573	0.1
679.9	0.1
680.226	0.1
680.553	0.1
680.879	0.1
681.206	0.1
681.532	0.1
681.858	0.1
682.184	0.1
682.511	0.1
682.837	0.1
683.163	0.1
683.489	0.1
683.815	0.1
684.141	0.1
684.467	0.1
684.793	0.1
685.118	0.1
685.444	0.11
685.77	0.1
686.095	0.1
686.421	0.1
686.746	0.1
687.072	0.1
687.397	0.09
687.723	0.1
688.048	0.1
688.373	0.09
688.698	0.09
689.023	0.09
689.349	0.09
689.674	0.09
689.999	0.09
690.323	0.08
690.648	0.08
690.973	0.08
691.298	0.08
691.623	0.08
691.947	0.09
692.272	0.08
692.596	0.09
692.921	0.09
693.245	0.08
693.57	0.09
693.894	0.09
694.218	0.09
694.543	0.1
694.867	0.09
695.191	0.09
695.515	0.09
695.839	0.09
696.163	0.09
696.487	0.09
696.811	0.09
697.135	0.1
697.458	0.09
697.782	0.09
698.106	0.09
698.429	0.1
698.753	0.09
699.076	0.09
699.4	0.09
699.723	0.09
700.046	0.09
700.37	0.09
700.693	0.1
701.016	0.1
701.339	0.1
701.662	0.09
701.985	0.09
702.308	0.09
702.631	0.09
702.954	0.09
703.277	0.09
703.599	0.09
703.922	0.08
704.245	0.08
704.567	0.08
704.89	0.08
705.212	0.08
705.535	0.08
705.857	0.07
706.179	0.07
706.502	0.07
706.824	0.08
707.146	0.07
707.468	0.08
707.79	0.08
708.112	0.08
708.434	0.08
708.756	0.08
709.078	0.08
709.399	0.08
709.721	0.08
710.043	0.08
710.364	0.08
710.686	0.08
711.007	0.08
711.329	0.08
711.65	0.08
711.972	0.08
712.293	0.09
712.614	0.08
712.935	0.09
713.256	0.09
713.577	0.09
713.898	0.09
714.219	0.08
714.54	0.09
714.861	0.08
715.182	0.08
715.503	0.08
715.823	0.08
716.144	0.08
716.464	0.07
716.785	0.08
717.105	0.08
717.426	0.08
717.746	0.07
718.066	0.08
718.387	0.08
718.707	0.07
719.027	0.08
719.347	0.07
719.667	0.07
719.987	0.07
720.307	0.07
720.627	0.07
720.947	0.08
721.266	0.07
721.586	0.07
721.906	0.07
722.225	0.06
722.545	0.07
722.864	0.08
723.184	0.07
723.503	0.08
723.823	0.07
724.142	0.07
