Data from 12-12-AQDScycling_Absorbance__529__00529.txt Node

Date: Tue Dec 12 13:08:59 EST 2023
User: kyuminlee
Spectrometer: FLMS00943
Trigger mode: 0
Integration Time (sec): 1.000000E-1
Scans to average: 1
Electric dark correction enabled: true
Nonlinearity correction enabled: false
Boxcar width: 0
XAxis mode: Wavelengths
Number of Pixels in Spectrum: 2048
>>>>>Begin Spectral Data<<<<<
179.651	0.54
180.037	0.54
180.424	0.54
180.81	0.28
181.197	0.17
181.583	-0.23
181.97	-0.29
182.356	-0
182.743	-1.16
183.129	0.35
183.515	0.26
183.901	-2.85
184.288	0.83
184.674	-0
185.06	-0.66
185.446	0.02
185.832	-0
186.218	0.44
186.604	-0
186.99	-0
187.376	0.55
187.762	0.39
188.148	0.63
188.534	0.12
188.92	0.01
189.305	0.01
189.691	0.47
190.077	0.17
190.463	0.27
190.848	0.05
191.234	0.1
191.619	0.02
192.005	0.21
192.391	0.12
192.776	0.1
193.161	0.23
193.547	0.13
193.932	0.18
194.318	0.01
194.703	0.11
195.088	0.33
195.473	0.26
195.859	0.16
196.244	0.28
196.629	0.14
197.014	-0
197.399	0.21
197.784	0.18
198.169	0.16
198.554	0.31
198.939	0.05
199.324	0.24
199.709	0.2
200.094	0.15
200.478	0.25
200.863	0.22
201.248	0.13
201.633	0.23
202.017	0.13
202.402	0.16
202.787	0.15
203.171	0.13
203.556	0.24
203.94	0.11
204.325	0.17
204.709	0.19
205.093	0.03
205.478	0.15
205.862	0.04
206.246	0.24
206.631	0.17
207.015	0.06
207.399	0.12
207.783	0.08
208.167	0.08
208.551	0.26
208.935	0.12
209.319	0.14
209.703	0.21
210.087	0.22
210.471	0.18
210.855	0.17
211.239	0.2
211.623	0.16
212.007	0.34
212.39	0.34
212.774	0.18
213.158	0.25
213.541	0.25
213.925	0.17
214.309	0.23
214.692	0.39
215.076	0.34
215.459	0.08
215.842	0.17
216.226	0.38
216.609	0.54
216.993	0.36
217.376	0.54
217.759	0.26
218.142	0.34
218.525	0.54
218.909	0.53
219.292	0.33
219.675	0.45
220.058	0.38
220.441	0.52
220.824	0.47
221.207	0.57
221.59	0.57
221.973	0.59
222.355	0.61
222.738	0.69
223.121	0.6
223.504	0.53
223.886	0.74
224.269	0.64
224.652	0.65
225.034	0.91
225.417	0.98
225.799	0.75
226.182	1
226.564	0.74
226.947	0.8
227.329	0.76
227.711	0.89
228.094	0.97
228.476	1.06
228.858	0.73
229.24	0.83
229.623	0.88
230.005	0.86
230.387	0.82
230.769	0.88
231.151	1.05
231.533	0.97
231.915	0.97
232.297	1.01
232.679	1.07
233.061	1.12
233.442	1
233.824	1.02
234.206	1.1
234.588	1.03
234.969	1.05
235.351	0.92
235.733	1.09
236.114	1.17
236.496	1.07
236.877	1.06
237.259	1.05
237.64	1.09
238.022	1.1
238.403	1.02
238.784	1.04
239.165	1.18
239.547	1.13
239.928	1.29
240.309	1.23
240.69	1.05
241.071	1.11
241.452	1.02
241.834	1.19
242.215	1.19
242.595	1.08
242.976	1.19
243.357	1.1
243.738	0.94
244.119	1.3
244.5	1.12
244.881	1.41
245.261	1.19
245.642	1.23
246.023	1.18
246.403	1.22
246.784	1.27
247.164	1.29
247.545	1.29
247.925	1.26
248.306	1.24
248.686	1.4
249.067	1.29
249.447	1.34
249.827	1.62
250.207	1.51
250.588	1.27
250.968	1.4
251.348	1.38
251.728	1.42
252.108	1.49
252.488	1.45
252.868	1.39
253.248	1.34
253.628	1.57
254.008	1.46
254.388	1.33
254.768	1.37
255.147	1.49
255.527	1.44
255.907	1.33
256.287	1.36
256.666	1.46
257.046	1.52
257.425	1.43
257.805	1.37
258.184	1.37
258.564	1.45
258.943	1.33
259.323	1.49
259.702	1.49
260.081	1.53
260.461	1.39
260.84	1.4
261.219	1.97
261.598	1.38
261.977	1.48
262.356	1.59
262.736	1.44
263.115	1.63
263.494	1.34
263.873	1.43
264.251	1.49
264.63	1.58
265.009	1.37
265.388	1.39
265.767	1.44
266.145	1.52
266.524	1.48
266.903	1.36
267.281	1.39
267.66	1.51
268.039	1.54
268.417	1.45
268.796	1.44
269.174	1.44
269.552	1.35
269.931	1.54
270.309	1.39
270.687	1.54
271.066	1.77
271.444	1.43
271.822	1.61
272.2	1.27
272.578	1.44
272.956	1.45
273.334	1.32
273.712	1.51
274.09	1.39
274.468	1.41
274.846	1.38
275.224	1.38
275.602	1.42
275.98	1.53
276.357	1.49
276.735	1.43
277.113	1.41
277.49	1.36
277.868	1.29
278.246	1.35
278.623	1.34
279.001	1.28
279.378	1.46
279.756	1.51
280.133	1.48
280.51	1.45
280.888	1.58
281.265	1.28
281.642	1.5
282.019	1.7
282.396	1.54
282.773	1.62
283.151	1.71
283.528	1.52
283.905	1.56
284.282	1.56
284.659	1.71
285.035	1.33
285.412	1.43
285.789	1.56
286.166	1.46
286.543	1.38
286.919	1.5
287.296	1.52
287.673	1.56
288.049	1.61
288.426	1.5
288.802	1.55
289.179	1.58
289.555	1.64
289.932	1.46
290.308	1.49
290.684	1.4
291.061	1.48
291.437	1.71
291.813	1.5
292.189	1.29
292.565	1.36
292.942	1.32
293.318	1.37
293.694	1.48
294.07	1.35
294.446	1.46
294.822	1.56
295.197	1.64
295.573	1.45
295.949	1.51
296.325	1.44
296.701	1.51
297.076	1.59
297.452	1.7
297.828	1.46
298.203	1.7
298.579	1.55
298.954	1.58
299.33	1.37
299.705	1.51
300.081	1.55
300.456	1.53
300.831	1.39
301.206	1.33
301.582	1.58
301.957	1.46
302.332	1.52
302.707	1.3
303.082	1.4
303.457	1.42
303.832	1.46
304.207	1.42
304.582	1.5
304.957	1.38
305.332	1.44
305.707	1.41
306.082	1.44
306.456	1.43
306.831	1.43
307.206	1.4
307.58	1.33
307.955	1.35
308.33	1.35
308.704	1.34
309.079	1.33
309.453	1.49
309.828	1.35
310.202	1.3
310.576	1.4
310.951	1.37
311.325	1.37
311.699	1.3
312.073	1.37
312.447	1.29
312.821	1.26
313.196	1.32
313.57	1.22
313.944	1.24
314.317	1.24
314.691	1.29
315.065	1.37
315.439	1.37
315.813	1.37
316.187	1.27
316.56	1.5
316.934	1.36
317.308	1.36
317.681	1.39
318.055	1.31
318.428	1.38
318.802	1.45
319.175	1.35
319.549	1.32
319.922	1.32
320.295	1.32
320.669	1.39
321.042	1.29
321.415	1.44
321.788	1.31
322.162	1.29
322.535	1.32
322.908	1.44
323.281	1.33
323.654	1.46
324.027	1.36
324.4	1.46
324.773	1.36
325.145	1.43
325.518	1.32
325.891	1.36
326.264	1.47
326.636	1.3
327.009	1.34
327.382	1.37
327.754	1.43
328.127	1.33
328.499	1.46
328.872	1.29
329.244	1.32
329.616	1.36
329.989	1.29
330.361	1.37
330.733	1.37
331.106	1.32
331.478	1.41
331.85	1.32
332.222	1.28
332.594	1.39
332.966	1.35
333.338	1.41
333.71	1.46
334.082	1.51
334.454	1.36
334.826	1.4
335.197	1.34
335.569	1.34
335.941	1.35
336.312	1.42
336.684	1.33
337.056	1.33
337.427	1.46
337.799	1.43
338.17	1.39
338.542	1.39
338.913	1.38
339.284	1.41
339.656	1.4
340.027	1.48
340.398	1.41
340.769	1.46
341.141	1.5
341.512	1.45
341.883	1.39
342.254	1.37
342.625	1.46
342.996	1.42
343.367	1.42
343.738	1.38
344.108	1.36
344.479	1.41
344.85	1.34
345.221	1.56
345.591	1.34
345.962	1.32
346.333	1.4
346.703	1.3
347.074	1.32
347.444	1.27
347.815	1.33
348.185	1.22
348.556	1.3
348.926	1.25
349.296	1.43
349.666	1.38
350.037	1.28
350.407	1.24
350.777	1.22
351.147	1.45
351.517	1.32
351.887	1.28
352.257	1.41
352.627	1.22
352.997	1.32
353.367	1.31
353.737	1.44
354.106	1.32
354.476	1.26
354.846	1.43
355.216	1.36
355.585	1.51
355.955	1.49
356.324	1.49
356.694	1.36
357.063	1.35
357.433	1.41
357.802	1.35
358.171	1.46
358.541	1.4
358.91	1.46
359.279	1.58
359.648	1.34
360.017	1.48
360.387	1.45
360.756	1.34
361.125	1.48
361.494	1.46
361.863	1.47
362.231	1.38
362.6	1.32
362.969	1.4
363.338	1.3
363.707	1.51
364.075	1.5
364.444	1.29
364.813	1.41
365.181	1.37
365.55	1.34
365.918	1.55
366.287	1.46
366.655	1.46
367.024	1.49
367.392	1.51
367.76	1.43
368.128	1.58
368.497	1.4
368.865	1.39
369.233	1.46
369.601	1.5
369.969	1.47
370.337	1.37
370.705	1.46
371.073	1.5
371.441	1.38
371.809	1.46
372.177	1.47
372.544	1.58
372.912	1.47
373.28	1.41
373.647	1.53
374.015	1.61
374.383	1.67
374.75	1.58
375.118	1.54
375.485	1.63
375.853	1.53
376.22	1.49
376.587	1.48
376.955	1.55
377.322	1.62
377.689	1.54
378.056	1.46
378.423	1.45
378.79	1.54
379.157	1.48
379.524	1.67
379.891	1.5
380.258	1.5
380.625	1.47
380.992	1.54
381.359	1.73
381.726	1.69
382.092	1.47
382.459	1.53
382.826	1.57
383.192	1.59
383.559	1.54
383.925	1.5
384.292	1.5
384.658	1.62
385.025	1.66
385.391	1.82
385.757	1.66
386.123	1.64
386.49	1.5
386.856	1.67
387.222	1.65
387.588	1.58
387.954	1.73
388.32	1.62
388.686	1.62
389.052	1.64
389.418	1.59
389.784	1.51
390.15	1.71
390.515	1.46
390.881	1.7
391.247	1.56
391.613	1.66
391.978	1.46
392.344	1.62
392.709	1.68
393.075	1.71
393.44	1.58
393.806	1.49
394.171	1.43
394.536	1.57
394.902	1.69
395.267	1.45
395.632	1.46
395.997	1.54
396.362	1.44
396.727	1.63
397.092	1.59
397.457	1.61
397.822	1.56
398.187	1.64
398.552	1.55
398.917	1.77
399.282	1.48
399.646	1.53
400.011	1.61
400.376	1.42
400.74	1.41
401.105	1.52
401.47	1.63
401.834	1.46
402.199	1.37
402.563	1.52
402.927	1.48
403.292	1.55
403.656	1.53
404.02	1.56
404.384	1.59
404.749	1.5
405.113	1.52
405.477	1.72
405.841	1.52
406.205	1.54
406.569	1.6
406.933	1.47
407.296	1.61
407.66	1.48
408.024	1.51
408.388	1.53
408.752	1.57
409.115	1.53
409.479	1.55
409.842	1.54
410.206	1.38
410.569	1.37
410.933	1.52
411.296	1.4
411.66	1.47
412.023	1.31
412.386	1.38
412.749	1.37
413.113	1.41
413.476	1.42
413.839	1.37
414.202	1.36
414.565	1.31
414.928	1.34
415.291	1.33
415.654	1.28
416.017	1.49
416.38	1.36
416.742	1.32
417.105	1.35
417.468	1.28
417.83	1.4
418.193	1.36
418.556	1.32
418.918	1.23
419.281	1.35
419.643	1.36
420.005	1.38
420.368	1.37
420.73	1.26
421.092	1.38
421.455	1.4
421.817	1.29
422.179	1.33
422.541	1.34
422.903	1.35
423.265	1.41
423.627	1.35
423.989	1.35
424.351	1.25
424.713	1.37
425.075	1.3
425.436	1.32
425.798	1.32
426.16	1.35
426.521	1.36
426.883	1.38
427.245	1.27
427.606	1.32
427.967	1.27
428.329	1.36
428.69	1.37
429.052	1.23
429.413	1.32
429.774	1.35
430.135	1.28
430.497	1.33
430.858	1.23
431.219	1.27
431.58	1.23
431.941	1.25
432.302	1.25
432.663	1.29
433.024	1.35
433.384	1.32
433.745	1.2
434.106	1.31
434.467	1.26
434.827	1.29
435.188	1.24
435.548	1.28
435.909	1.2
436.269	1.28
436.63	1.21
436.99	1.24
437.351	1.16
437.711	1.21
438.071	1.16
438.431	1.22
438.792	1.18
439.152	1.19
439.512	1.13
439.872	1.14
440.232	1.23
440.592	1.2
440.952	1.18
441.312	1.17
441.671	1.13
442.031	1.18
442.391	1.14
442.751	1.2
443.11	1.19
443.47	1.11
443.83	1.08
444.189	1.1
444.549	1.11
444.908	1.08
445.267	1.07
445.627	1.06
445.986	1.07
446.345	1.05
446.705	1.07
447.064	1.05
447.423	1.05
447.782	1.07
448.141	1.05
448.5	0.99
448.859	1
449.218	1.03
449.577	1.02
449.936	1
450.295	1
450.653	0.99
451.012	1
451.371	0.97
451.729	0.97
452.088	0.98
452.447	0.98
452.805	0.97
453.163	0.95
453.522	0.94
453.88	0.94
454.239	0.96
454.597	0.91
454.955	0.88
455.313	0.91
455.671	0.89
456.029	0.89
456.388	0.88
456.746	0.87
457.104	0.85
457.461	0.84
457.819	0.84
458.177	0.83
458.535	0.82
458.893	0.82
459.25	0.83
459.608	0.79
459.966	0.78
460.323	0.78
460.681	0.75
461.038	0.74
461.396	0.74
461.753	0.74
462.111	0.73
462.468	0.7
462.825	0.7
463.182	0.69
463.54	0.68
463.897	0.7
464.254	0.68
464.611	0.68
464.968	0.66
465.325	0.67
465.682	0.66
466.039	0.64
466.395	0.63
466.752	0.62
467.109	0.61
467.466	0.61
467.822	0.6
468.179	0.57
468.535	0.59
468.892	0.57
469.248	0.55
469.605	0.56
469.961	0.56
470.318	0.55
470.674	0.54
471.03	0.53
471.386	0.53
471.743	0.52
472.099	0.51
472.455	0.5
472.811	0.49
473.167	0.5
473.523	0.49
473.879	0.48
474.235	0.47
474.59	0.46
474.946	0.45
475.302	0.44
475.657	0.45
476.013	0.43
476.369	0.42
476.724	0.42
477.08	0.42
477.435	0.41
477.791	0.41
478.146	0.4
478.501	0.39
478.857	0.39
479.212	0.38
479.567	0.39
479.922	0.37
480.277	0.36
480.632	0.36
480.987	0.37
481.342	0.36
481.697	0.35
482.052	0.34
482.407	0.34
482.762	0.33
483.116	0.33
483.471	0.32
483.826	0.31
484.18	0.32
484.535	0.31
484.89	0.31
485.244	0.3
485.598	0.3
485.953	0.3
486.307	0.29
486.661	0.29
487.016	0.28
487.37	0.28
487.724	0.28
488.078	0.27
488.432	0.27
488.786	0.27
489.14	0.27
489.494	0.26
489.848	0.27
490.202	0.25
490.556	0.25
490.91	0.26
491.263	0.26
491.617	0.24
491.971	0.24
492.324	0.24
492.678	0.24
493.031	0.24
493.385	0.23
493.738	0.23
494.091	0.23
494.445	0.23
494.798	0.23
495.151	0.23
495.504	0.23
495.857	0.22
496.21	0.22
496.564	0.22
496.916	0.22
497.269	0.21
497.622	0.21
497.975	0.21
498.328	0.21
498.681	0.21
499.033	0.2
499.386	0.2
499.739	0.2
500.091	0.2
500.444	0.19
500.796	0.2
501.149	0.19
501.501	0.2
501.854	0.2
502.206	0.19
502.558	0.2
502.91	0.19
503.263	0.19
503.615	0.19
503.967	0.18
504.319	0.19
504.671	0.19
505.023	0.18
505.375	0.18
505.726	0.18
506.078	0.19
506.43	0.19
506.782	0.18
507.133	0.18
507.485	0.19
507.837	0.19
508.188	0.19
508.54	0.17
508.891	0.18
509.243	0.18
509.594	0.18
509.945	0.18
510.296	0.18
510.648	0.18
510.999	0.17
511.35	0.17
511.701	0.18
512.052	0.18
512.403	0.18
512.754	0.18
513.105	0.18
513.456	0.17
513.807	0.17
514.157	0.18
514.508	0.17
514.859	0.17
515.209	0.17
515.56	0.17
515.91	0.17
516.261	0.18
516.611	0.17
516.962	0.18
517.312	0.17
517.662	0.18
518.013	0.18
518.363	0.17
518.713	0.18
519.063	0.17
519.413	0.17
519.763	0.17
520.113	0.18
520.463	0.18
520.813	0.18
521.163	0.18
521.512	0.17
521.862	0.17
522.212	0.17
522.562	0.17
522.911	0.17
523.261	0.17
523.61	0.17
523.96	0.17
524.309	0.18
524.658	0.18
525.008	0.17
525.357	0.17
525.706	0.18
526.056	0.17
526.405	0.17
526.754	0.16
527.103	0.17
527.452	0.17
527.801	0.18
528.15	0.18
528.499	0.17
528.847	0.18
529.196	0.18
529.545	0.18
529.893	0.18
530.242	0.18
530.591	0.19
530.939	0.19
531.288	0.18
531.636	0.18
531.985	0.18
532.333	0.17
532.681	0.18
533.029	0.18
533.378	0.18
533.726	0.19
534.074	0.19
534.422	0.18
534.77	0.18
535.118	0.18
535.466	0.18
535.814	0.19
536.162	0.18
536.509	0.19
536.857	0.18
537.205	0.19
537.552	0.19
537.9	0.18
538.248	0.18
538.595	0.18
538.943	0.18
539.29	0.19
539.637	0.19
539.985	0.19
540.332	0.18
540.679	0.19
541.026	0.18
541.373	0.19
541.721	0.18
542.068	0.18
542.415	0.18
542.762	0.17
543.108	0.17
543.455	0.17
543.802	0.17
544.149	0.18
544.496	0.17
544.842	0.17
545.189	0.16
545.535	0.18
545.882	0.17
546.228	0.17
546.575	0.17
546.921	0.17
547.267	0.17
547.614	0.17
547.96	0.18
548.306	0.17
548.652	0.17
548.998	0.18
549.344	0.17
549.69	0.18
550.036	0.17
550.382	0.18
550.728	0.17
551.074	0.18
551.42	0.18
551.765	0.18
552.111	0.18
552.457	0.19
552.802	0.18
553.148	0.18
553.493	0.18
553.839	0.18
554.184	0.18
554.529	0.17
554.875	0.18
555.22	0.18
555.565	0.17
555.91	0.18
556.255	0.19
556.6	0.18
556.945	0.18
557.29	0.18
557.635	0.18
557.98	0.18
558.325	0.18
558.67	0.18
559.014	0.18
559.359	0.18
559.704	0.19
560.048	0.18
560.393	0.18
560.737	0.17
561.082	0.18
561.426	0.17
561.77	0.18
562.115	0.17
562.459	0.17
562.803	0.18
563.147	0.17
563.491	0.18
563.835	0.19
564.179	0.19
564.523	0.18
564.867	0.17
565.211	0.18
565.555	0.18
565.899	0.19
566.242	0.18
566.586	0.17
566.93	0.18
567.273	0.19
567.617	0.18
567.96	0.19
568.304	0.19
568.647	0.18
568.99	0.18
569.334	0.19
569.677	0.19
570.02	0.19
570.363	0.18
570.706	0.19
571.049	0.19
571.392	0.19
571.735	0.18
572.078	0.18
572.421	0.18
572.764	0.18
573.106	0.18
573.449	0.19
573.792	0.18
574.134	0.18
574.477	0.18
574.819	0.19
575.162	0.19
575.504	0.18
575.847	0.18
576.189	0.19
576.531	0.18
576.873	0.18
577.215	0.19
577.558	0.18
577.9	0.17
578.242	0.18
578.584	0.19
578.926	0.18
579.267	0.18
579.609	0.19
579.951	0.18
580.293	0.18
580.634	0.19
580.976	0.19
581.318	0.17
581.659	0.18
582.001	0.18
582.342	0.18
582.683	0.18
583.025	0.17
583.366	0.18
583.707	0.17
584.049	0.18
584.39	0.18
584.731	0.17
585.072	0.17
585.413	0.19
585.754	0.18
586.095	0.18
586.435	0.18
586.776	0.18
587.117	0.18
587.458	0.18
587.798	0.17
588.139	0.17
588.48	0.17
588.82	0.18
589.161	0.18
589.501	0.17
589.841	0.18
590.182	0.17
590.522	0.17
590.862	0.17
591.202	0.18
591.542	0.17
591.882	0.18
592.222	0.18
592.562	0.18
592.902	0.18
593.242	0.17
593.582	0.18
593.922	0.17
594.261	0.17
594.601	0.17
594.941	0.17
595.28	0.18
595.62	0.17
595.959	0.18
596.299	0.18
596.638	0.18
596.977	0.18
597.317	0.18
597.656	0.18
597.995	0.18
598.334	0.19
598.673	0.18
599.012	0.19
599.351	0.18
599.69	0.17
600.029	0.18
600.368	0.18
600.707	0.18
601.046	0.17
601.384	0.18
601.723	0.19
602.061	0.18
602.4	0.19
602.738	0.18
603.077	0.18
603.415	0.18
603.754	0.19
604.092	0.18
604.43	0.18
604.768	0.18
605.107	0.18
605.445	0.17
605.783	0.18
606.121	0.17
606.459	0.18
606.796	0.17
607.134	0.17
607.472	0.17
607.81	0.18
608.148	0.17
608.485	0.18
608.823	0.18
609.16	0.17
609.498	0.17
609.835	0.17
610.173	0.16
610.51	0.17
610.847	0.18
611.185	0.18
611.522	0.18
611.859	0.18
612.196	0.18
612.533	0.18
612.87	0.18
613.207	0.18
613.544	0.17
613.881	0.19
614.217	0.18
614.554	0.18
614.891	0.18
615.228	0.18
615.564	0.19
615.901	0.18
616.237	0.19
616.574	0.18
616.91	0.18
617.246	0.18
617.583	0.18
617.919	0.19
618.255	0.18
618.591	0.19
618.927	0.18
619.263	0.18
619.599	0.18
619.935	0.19
620.271	0.18
620.607	0.18
620.943	0.18
621.279	0.18
621.614	0.18
621.95	0.18
622.286	0.17
622.621	0.17
622.957	0.18
623.292	0.17
623.627	0.18
623.963	0.17
624.298	0.18
624.633	0.17
624.968	0.17
625.304	0.16
625.639	0.16
625.974	0.17
626.309	0.16
626.644	0.16
626.979	0.18
627.313	0.17
627.648	0.17
627.983	0.17
628.318	0.16
628.652	0.17
628.987	0.17
629.321	0.16
629.656	0.16
629.99	0.16
630.325	0.16
630.659	0.16
630.993	0.16
631.327	0.16
631.662	0.15
631.996	0.16
632.33	0.15
632.664	0.16
632.998	0.15
633.332	0.15
633.666	0.16
633.999	0.16
634.333	0.16
634.667	0.16
635.001	0.15
635.334	0.15
635.668	0.15
636.001	0.15
636.335	0.15
636.668	0.16
637.001	0.14
637.335	0.16
637.668	0.16
638.001	0.15
638.334	0.15
638.668	0.15
639.001	0.15
639.334	0.15
639.667	0.15
639.999	0.16
640.332	0.15
640.665	0.15
640.998	0.15
641.331	0.15
641.663	0.15
641.996	0.15
642.328	0.16
642.661	0.15
642.993	0.15
643.326	0.15
643.658	0.14
643.99	0.14
644.323	0.14
644.655	0.15
644.987	0.14
645.319	0.15
645.651	0.15
645.983	0.14
646.315	0.14
646.647	0.14
646.979	0.15
647.31	0.15
647.642	0.14
647.974	0.14
648.305	0.15
648.637	0.15
648.968	0.14
649.3	0.15
649.631	0.15
649.963	0.15
650.294	0.15
650.625	0.15
650.957	0.15
651.288	0.15
651.619	0.15
651.95	0.15
652.281	0.15
652.612	0.15
652.943	0.15
653.274	0.15
653.604	0.15
653.935	0.15
654.266	0.15
654.596	0.15
654.927	0.14
655.258	0.14
655.588	0.15
655.918	0.15
656.249	0.13
656.579	0.14
656.909	0.14
657.24	0.14
657.57	0.14
657.9	0.14
658.23	0.14
658.56	0.14
658.89	0.15
659.22	0.15
659.55	0.14
659.88	0.14
660.209	0.14
660.539	0.15
660.869	0.15
661.198	0.14
661.528	0.14
661.857	0.14
662.187	0.15
662.516	0.14
662.846	0.14
663.175	0.14
663.504	0.14
663.833	0.15
664.163	0.14
664.492	0.14
664.821	0.14
665.15	0.14
665.479	0.14
665.807	0.14
666.136	0.14
666.465	0.14
666.794	0.14
667.122	0.14
667.451	0.14
667.78	0.14
668.108	0.14
668.437	0.13
668.765	0.15
669.093	0.14
669.422	0.14
669.75	0.13
670.078	0.13
670.406	0.14
670.734	0.13
671.062	0.14
671.39	0.14
671.718	0.14
672.046	0.13
672.374	0.12
672.702	0.13
673.029	0.13
673.357	0.13
673.685	0.14
674.012	0.13
674.34	0.13
674.667	0.13
674.995	0.14
675.322	0.14
675.649	0.13
675.977	0.13
676.304	0.13
676.631	0.13
676.958	0.13
677.285	0.12
677.612	0.13
677.939	0.13
678.266	0.13
678.593	0.13
678.92	0.13
679.246	0.13
679.573	0.13
679.9	0.13
680.226	0.13
680.553	0.12
680.879	0.13
681.206	0.13
681.532	0.12
681.858	0.13
682.184	0.12
682.511	0.13
682.837	0.13
683.163	0.13
683.489	0.13
683.815	0.12
684.141	0.13
684.467	0.12
684.793	0.11
685.118	0.12
685.444	0.12
685.77	0.12
686.095	0.13
686.421	0.12
686.746	0.12
687.072	0.13
687.397	0.12
687.723	0.13
688.048	0.13
688.373	0.12
688.698	0.12
689.023	0.12
689.349	0.13
689.674	0.12
689.999	0.12
690.323	0.12
690.648	0.11
690.973	0.11
691.298	0.11
691.623	0.12
691.947	0.13
692.272	0.12
692.596	0.12
692.921	0.12
693.245	0.12
693.57	0.13
693.894	0.12
694.218	0.12
694.543	0.12
694.867	0.11
695.191	0.12
695.515	0.12
695.839	0.11
696.163	0.12
696.487	0.11
696.811	0.11
697.135	0.12
697.458	0.11
697.782	0.11
698.106	0.11
698.429	0.11
698.753	0.11
699.076	0.11
699.4	0.11
699.723	0.11
700.046	0.1
700.37	0.11
700.693	0.11
701.016	0.11
701.339	0.12
701.662	0.12
701.985	0.11
702.308	0.11
702.631	0.11
702.954	0.12
703.277	0.11
703.599	0.11
703.922	0.11
704.245	0.11
704.567	0.11
704.89	0.1
705.212	0.11
705.535	0.11
705.857	0.1
706.179	0.1
706.502	0.1
706.824	0.1
707.146	0.1
707.468	0.11
707.79	0.1
708.112	0.11
708.434	0.1
708.756	0.1
709.078	0.1
709.399	0.1
709.721	0.1
710.043	0.11
710.364	0.11
710.686	0.11
711.007	0.1
711.329	0.11
711.65	0.1
711.972	0.1
712.293	0.11
712.614	0.11
712.935	0.11
713.256	0.1
713.577	0.11
713.898	0.11
714.219	0.1
714.54	0.1
714.861	0.09
715.182	0.1
715.503	0.1
715.823	0.1
716.144	0.1
716.464	0.09
716.785	0.1
717.105	0.1
717.426	0.1
717.746	0.09
718.066	0.09
718.387	0.09
718.707	0.09
719.027	0.1
719.347	0.09
719.667	0.09
719.987	0.09
720.307	0.08
720.627	0.09
720.947	0.09
721.266	0.09
721.586	0.08
721.906	0.09
722.225	0.08
722.545	0.08
722.864	0.09
723.184	0.09
723.503	0.08
