Data from 12-12-AQDScycling_Absorbance__346__00346.txt Node

Date: Tue Dec 12 12:23:14 EST 2023
User: kyuminlee
Spectrometer: FLMS00943
Trigger mode: 0
Integration Time (sec): 1.000000E-1
Scans to average: 1
Electric dark correction enabled: true
Nonlinearity correction enabled: false
Boxcar width: 0
XAxis mode: Wavelengths
Number of Pixels in Spectrum: 2048
>>>>>Begin Spectral Data<<<<<
179.651	0.98
180.037	0.98
180.424	0.98
180.81	-0.02
181.197	0.34
181.583	-0
181.97	-0.5
182.356	-0
182.743	-1
183.129	0.46
183.515	-0
183.901	-0
184.288	0.5
184.674	-0
185.06	-0
185.446	-0
185.832	-1.32
186.218	0.48
186.604	-0.45
186.99	-0
187.376	-0
187.762	0.27
188.148	0.23
188.534	-0.1
188.92	0.14
189.305	0.06
189.691	0.24
190.077	0.26
190.463	0.04
190.848	0.05
191.234	0.14
191.619	-0.03
192.005	0.02
192.391	0.17
192.776	0.21
193.161	0.11
193.547	0.28
193.932	0.02
194.318	0.05
194.703	0.39
195.088	0.18
195.473	0.04
195.859	0.16
196.244	0.26
196.629	0.02
197.014	0.05
197.399	0.09
197.784	0.18
198.169	0
198.554	0.14
198.939	0.09
199.324	0.12
199.709	0.04
200.094	0.08
200.478	0.17
200.863	0.14
201.248	0.19
201.633	0.17
202.017	0.16
202.402	0.4
202.787	0.17
203.171	0.16
203.556	0.22
203.94	0.17
204.325	0.2
204.709	0.26
205.093	0.08
205.478	0.21
205.862	0.16
206.246	0.27
206.631	0.05
207.015	0.08
207.399	0.21
207.783	0.28
208.167	0.28
208.551	0.34
208.935	0.14
209.319	0.13
209.703	0.07
210.087	0.24
210.471	0.21
210.855	0.07
211.239	0.15
211.623	0.24
212.007	0.23
212.39	0.36
212.774	0.23
213.158	0.12
213.541	0.14
213.925	0.2
214.309	0.39
214.692	0.34
215.076	0.18
215.459	0.19
215.842	0.11
216.226	0.19
216.609	0.24
216.993	0.16
217.376	0.41
217.759	0.17
218.142	0.36
218.525	0.47
218.909	0.36
219.292	0.37
219.675	0.44
220.058	0.29
220.441	0.48
220.824	0.55
221.207	0.57
221.59	0.47
221.973	0.44
222.355	0.69
222.738	0.72
223.121	0.65
223.504	0.58
223.886	0.63
224.269	0.7
224.652	0.58
225.034	0.76
225.417	0.72
225.799	0.78
226.182	0.89
226.564	0.84
226.947	0.66
227.329	0.68
227.711	0.96
228.094	0.83
228.476	0.97
228.858	0.83
229.24	0.83
229.623	0.95
230.005	0.98
230.387	0.81
230.769	0.85
231.151	0.95
231.533	0.93
231.915	0.97
232.297	1.02
232.679	1.05
233.061	1.06
233.442	0.92
233.824	1.01
234.206	1.12
234.588	1.1
234.969	1.04
235.351	0.93
235.733	1.08
236.114	1.03
236.496	1.09
236.877	1.19
237.259	1.26
237.64	1.07
238.022	1.04
238.403	1.08
238.784	1.01
239.165	0.91
239.547	1.1
239.928	1.15
240.309	1.09
240.69	0.96
241.071	1.11
241.452	1.12
241.834	1.01
242.215	1.05
242.595	1.11
242.976	1.07
243.357	1.19
243.738	1.01
244.119	1.18
244.5	1.14
244.881	1.3
245.261	1.18
245.642	1.06
246.023	1.22
246.403	1.12
246.784	1.26
247.164	1.4
247.545	1.26
247.925	1.26
248.306	1.28
248.686	1.39
249.067	1.16
249.447	1.32
249.827	1.46
250.207	1.43
250.588	1.33
250.968	1.38
251.348	1.32
251.728	1.53
252.108	1.5
252.488	1.47
252.868	1.39
253.248	1.36
253.628	1.29
254.008	1.41
254.388	1.29
254.768	1.25
255.147	1.36
255.527	1.45
255.907	1.39
256.287	1.3
256.666	1.48
257.046	1.41
257.425	1.5
257.805	1.32
258.184	1.25
258.564	1.35
258.943	1.32
259.323	1.41
259.702	1.43
260.081	1.46
260.461	1.46
260.84	1.41
261.219	1.73
261.598	1.44
261.977	1.52
262.356	1.48
262.736	1.46
263.115	1.41
263.494	1.37
263.873	1.46
264.251	1.58
264.63	1.57
265.009	1.52
265.388	1.43
265.767	1.28
266.145	1.42
266.524	1.34
266.903	1.51
267.281	1.34
267.66	1.72
268.039	1.4
268.417	1.42
268.796	1.49
269.174	1.33
269.552	1.31
269.931	1.48
270.309	1.36
270.687	1.48
271.066	1.56
271.444	1.32
271.822	1.68
272.2	1.39
272.578	1.47
272.956	1.44
273.334	1.38
273.712	1.31
274.09	1.37
274.468	1.41
274.846	1.26
275.224	1.4
275.602	1.48
275.98	1.63
276.357	1.44
276.735	1.47
277.113	1.31
277.49	1.27
277.868	1.33
278.246	1.38
278.623	1.32
279.001	1.44
279.378	1.35
279.756	1.52
280.133	1.86
280.51	1.47
280.888	1.41
281.265	1.3
281.642	1.49
282.019	1.49
282.396	1.51
282.773	1.61
283.151	1.53
283.528	1.54
283.905	1.53
284.282	1.45
284.659	1.49
285.035	1.34
285.412	1.38
285.789	1.52
286.166	1.61
286.543	1.48
286.919	1.57
287.296	1.38
287.673	1.57
288.049	1.57
288.426	1.54
288.802	1.49
289.179	1.35
289.555	1.5
289.932	1.51
290.308	1.42
290.684	1.48
291.061	1.41
291.437	1.44
291.813	1.31
292.189	1.37
292.565	1.39
292.942	1.25
293.318	1.29
293.694	1.38
294.07	1.31
294.446	1.49
294.822	1.61
295.197	1.3
295.573	1.41
295.949	1.47
296.325	1.37
296.701	1.46
297.076	1.49
297.452	1.5
297.828	1.43
298.203	1.49
298.579	1.28
298.954	1.35
299.33	1.36
299.705	1.37
300.081	1.31
300.456	1.24
300.831	1.23
301.206	1.23
301.582	1.27
301.957	1.22
302.332	1.28
302.707	1.17
303.082	1.16
303.457	1.15
303.832	1.14
304.207	1.05
304.582	1.04
304.957	1.06
305.332	1.06
305.707	1.01
306.082	0.98
306.456	1.03
306.831	0.96
307.206	0.94
307.58	0.96
307.955	0.92
308.33	0.9
308.704	0.88
309.079	0.84
309.453	0.87
309.828	0.87
310.202	0.78
310.576	0.81
310.951	0.79
311.325	0.74
311.699	0.74
312.073	0.72
312.447	0.72
312.821	0.73
313.196	0.74
313.57	0.67
313.944	0.69
314.317	0.69
314.691	0.68
315.065	0.68
315.439	0.66
315.813	0.68
316.187	0.63
316.56	0.65
316.934	0.64
317.308	0.62
317.681	0.62
318.055	0.63
318.428	0.6
318.802	0.61
319.175	0.6
319.549	0.59
319.922	0.59
320.295	0.56
320.669	0.61
321.042	0.59
321.415	0.6
321.788	0.58
322.162	0.54
322.535	0.56
322.908	0.56
323.281	0.55
323.654	0.56
324.027	0.53
324.4	0.56
324.773	0.58
325.145	0.54
325.518	0.55
325.891	0.56
326.264	0.56
326.636	0.56
327.009	0.56
327.382	0.56
327.754	0.58
328.127	0.55
328.499	0.57
328.872	0.58
329.244	0.61
329.616	0.58
329.989	0.6
330.361	0.6
330.733	0.6
331.106	0.6
331.478	0.6
331.85	0.6
332.222	0.59
332.594	0.63
332.966	0.66
333.338	0.68
333.71	0.67
334.082	0.7
334.454	0.68
334.826	0.68
335.197	0.69
335.569	0.69
335.941	0.7
336.312	0.69
336.684	0.72
337.056	0.75
337.427	0.77
337.799	0.75
338.17	0.75
338.542	0.75
338.913	0.82
339.284	0.78
339.656	0.78
340.027	0.85
340.398	0.8
340.769	0.83
341.141	0.87
341.512	0.85
341.883	0.87
342.254	0.87
342.625	0.89
342.996	0.9
343.367	0.94
343.738	0.95
344.108	0.93
344.479	1
344.85	0.92
345.221	0.97
345.591	0.95
345.962	1.07
346.333	0.99
346.703	0.93
347.074	1.08
347.444	1.04
347.815	1.04
348.185	1.06
348.556	1.05
348.926	1.11
349.296	1.11
349.666	1.16
350.037	1.11
350.407	1.07
350.777	1.13
351.147	1.24
351.517	1.18
351.887	1.31
352.257	1.32
352.627	1.24
352.997	1.16
353.367	1.24
353.737	1.27
354.106	1.32
354.476	1.2
354.846	1.39
355.216	1.47
355.585	1.37
355.955	1.39
356.324	1.48
356.694	1.46
357.063	1.34
357.433	1.36
357.802	1.48
358.171	1.57
358.541	1.36
358.91	1.52
359.279	1.7
359.648	1.42
360.017	1.43
360.387	1.47
360.756	1.4
361.125	1.63
361.494	1.65
361.863	1.45
362.231	1.56
362.6	1.57
362.969	1.74
363.338	1.48
363.707	1.69
364.075	1.71
364.444	1.46
364.813	1.54
365.181	1.59
365.55	1.55
365.918	1.53
366.287	1.64
366.655	1.6
367.024	1.61
367.392	1.59
367.76	1.48
368.128	1.56
368.497	1.5
368.865	1.48
369.233	1.61
369.601	1.57
369.969	1.5
370.337	1.56
370.705	1.52
371.073	1.46
371.441	1.58
371.809	1.44
372.177	1.53
372.544	1.52
372.912	1.71
373.28	1.51
373.647	1.61
374.015	1.6
374.383	1.93
374.75	1.71
375.118	1.58
375.485	1.63
375.853	1.75
376.22	1.52
376.587	1.51
376.955	1.66
377.322	1.71
377.689	1.5
378.056	1.47
378.423	1.48
378.79	1.44
379.157	1.57
379.524	1.56
379.891	1.47
380.258	1.62
380.625	1.56
380.992	1.49
381.359	1.63
381.726	1.83
382.092	1.59
382.459	1.48
382.826	1.53
383.192	1.47
383.559	1.69
383.925	1.57
384.292	1.43
384.658	1.94
385.025	1.7
385.391	1.65
385.757	1.74
386.123	1.49
386.49	1.45
386.856	1.77
387.222	1.75
387.588	1.57
387.954	1.81
388.32	1.75
388.686	1.68
389.052	1.52
389.418	1.66
389.784	1.56
390.15	1.59
390.515	1.34
390.881	1.68
391.247	1.56
391.613	1.58
391.978	1.57
392.344	1.54
392.709	1.57
393.075	1.59
393.44	1.44
393.806	1.62
394.171	1.47
394.536	1.51
394.902	1.74
395.267	1.47
395.632	1.42
395.997	1.38
396.362	1.49
396.727	1.57
397.092	1.54
397.457	1.56
397.822	1.5
398.187	1.7
398.552	1.56
398.917	1.87
399.282	1.55
399.646	1.63
400.011	1.65
400.376	1.41
400.74	1.56
401.105	1.56
401.47	1.56
401.834	1.56
402.199	1.62
402.563	1.6
402.927	1.64
403.292	1.55
403.656	1.57
404.02	1.53
404.384	1.57
404.749	1.63
405.113	1.71
405.477	1.65
405.841	1.62
406.205	1.59
406.569	1.54
406.933	1.5
407.296	1.59
407.66	1.66
408.024	1.56
408.388	1.73
408.752	1.67
409.115	1.88
409.479	1.66
409.842	1.7
410.206	1.49
410.569	1.57
410.933	1.57
411.296	1.43
411.66	1.66
412.023	1.53
412.386	1.49
412.749	1.49
413.113	1.44
413.476	1.54
413.839	1.4
414.202	1.46
414.565	1.48
414.928	1.46
415.291	1.48
415.654	1.54
416.017	1.72
416.38	1.55
416.742	1.57
417.105	1.56
417.468	1.53
417.83	1.69
418.193	1.78
418.556	1.51
418.918	1.46
419.281	1.48
419.643	1.68
420.005	1.41
420.368	1.49
420.73	1.48
421.092	1.54
421.455	1.75
421.817	1.42
422.179	1.49
422.541	1.53
422.903	1.74
423.265	1.69
423.627	1.5
423.989	1.63
424.351	1.47
424.713	1.49
425.075	1.54
425.436	1.48
425.798	1.44
426.16	1.55
426.521	1.57
426.883	1.63
427.245	1.7
427.606	1.53
427.967	1.37
428.329	1.63
428.69	1.53
429.052	1.64
429.413	1.57
429.774	1.72
430.135	1.63
430.497	1.53
430.858	1.58
431.219	1.68
431.58	1.5
431.941	1.56
432.302	1.49
432.663	1.61
433.024	1.78
433.384	1.49
433.745	1.41
434.106	1.65
434.467	1.49
434.827	1.53
435.188	1.45
435.548	1.78
435.909	1.54
436.269	1.57
436.63	1.46
436.99	1.52
437.351	1.39
437.711	1.64
438.071	1.51
438.431	1.47
438.792	1.53
439.152	1.57
439.512	1.42
439.872	1.43
440.232	1.58
440.592	1.55
440.952	1.44
441.312	1.47
441.671	1.49
442.031	1.58
442.391	1.48
442.751	1.45
443.11	1.57
443.47	1.42
443.83	1.4
444.189	1.39
444.549	1.48
444.908	1.46
445.267	1.42
445.627	1.51
445.986	1.48
446.345	1.41
446.705	1.38
447.064	1.42
447.423	1.41
447.782	1.43
448.141	1.44
448.5	1.3
448.859	1.32
449.218	1.36
449.577	1.41
449.936	1.39
450.295	1.42
450.653	1.39
451.012	1.37
451.371	1.34
451.729	1.31
452.088	1.34
452.447	1.32
452.805	1.34
453.163	1.33
453.522	1.36
453.88	1.29
454.239	1.28
454.597	1.29
454.955	1.23
455.313	1.28
455.671	1.24
456.029	1.25
456.388	1.19
456.746	1.2
457.104	1.21
457.461	1.16
457.819	1.14
458.177	1.15
458.535	1.12
458.893	1.11
459.25	1.1
459.608	1.1
459.966	1.09
460.323	1.05
460.681	1.02
461.038	1.04
461.396	1.02
461.753	1
462.111	0.97
462.468	0.97
462.825	0.95
463.182	0.93
463.54	0.92
463.897	0.92
464.254	0.9
464.611	0.89
464.968	0.88
465.325	0.89
465.682	0.87
466.039	0.84
466.395	0.83
466.752	0.82
467.109	0.8
467.466	0.8
467.822	0.78
468.179	0.76
468.535	0.75
468.892	0.74
469.248	0.71
469.605	0.71
469.961	0.71
470.318	0.69
470.674	0.69
471.03	0.67
471.386	0.67
471.743	0.65
472.099	0.63
472.455	0.63
472.811	0.62
473.167	0.6
473.523	0.59
473.879	0.58
474.235	0.57
474.59	0.56
474.946	0.55
475.302	0.54
475.657	0.53
476.013	0.52
476.369	0.5
476.724	0.5
477.08	0.48
477.435	0.48
477.791	0.47
478.146	0.46
478.501	0.46
478.857	0.44
479.212	0.43
479.567	0.43
479.922	0.41
480.277	0.42
480.632	0.4
480.987	0.41
481.342	0.38
481.697	0.38
482.052	0.36
482.407	0.35
482.762	0.35
483.116	0.34
483.471	0.33
483.826	0.31
484.18	0.32
484.535	0.31
484.89	0.3
485.244	0.3
485.598	0.3
485.953	0.28
486.307	0.28
486.661	0.28
487.016	0.27
487.37	0.26
487.724	0.26
488.078	0.25
488.432	0.25
488.786	0.24
489.14	0.23
489.494	0.22
489.848	0.22
490.202	0.21
490.556	0.22
490.91	0.21
491.263	0.21
491.617	0.2
491.971	0.19
492.324	0.19
492.678	0.19
493.031	0.19
493.385	0.18
493.738	0.18
494.091	0.17
494.445	0.17
494.798	0.16
495.151	0.16
495.504	0.16
495.857	0.15
496.21	0.16
496.564	0.14
496.916	0.14
497.269	0.14
497.622	0.13
497.975	0.13
498.328	0.13
498.681	0.13
499.033	0.13
499.386	0.13
499.739	0.12
500.091	0.11
500.444	0.12
500.796	0.12
501.149	0.11
501.501	0.11
501.854	0.11
502.206	0.1
502.558	0.1
502.91	0.1
503.263	0.09
503.615	0.09
503.967	0.09
504.319	0.09
504.671	0.09
505.023	0.08
505.375	0.08
505.726	0.08
506.078	0.08
506.43	0.07
506.782	0.08
507.133	0.07
507.485	0.08
507.837	0.08
508.188	0.07
508.54	0.07
508.891	0.07
509.243	0.06
509.594	0.07
509.945	0.07
510.296	0.06
510.648	0.07
510.999	0.06
511.35	0.06
511.701	0.05
512.052	0.06
512.403	0.06
512.754	0.06
513.105	0.05
513.456	0.06
513.807	0.05
514.157	0.06
514.508	0.05
514.859	0.05
515.209	0.05
515.56	0.05
515.91	0.05
516.261	0.05
516.611	0.04
516.962	0.05
517.312	0.05
517.662	0.05
518.013	0.04
518.363	0.05
518.713	0.05
519.063	0.04
519.413	0.04
519.763	0.04
520.113	0.04
520.463	0.05
520.813	0.05
521.163	0.04
521.512	0.04
521.862	0.04
522.212	0.05
522.562	0.05
522.911	0.04
523.261	0.04
523.61	0.04
523.96	0.04
524.309	0.04
524.658	0.04
525.008	0.03
525.357	0.04
525.706	0.04
526.056	0.03
526.405	0.04
526.754	0.04
527.103	0.03
527.452	0.03
527.801	0.04
528.15	0.04
528.499	0.04
528.847	0.03
529.196	0.04
529.545	0.04
529.893	0.04
530.242	0.03
530.591	0.04
530.939	0.04
531.288	0.04
531.636	0.04
531.985	0.04
532.333	0.04
532.681	0.03
533.029	0.03
533.378	0.04
533.726	0.04
534.074	0.04
534.422	0.03
534.77	0.04
535.118	0.03
535.466	0.03
535.814	0.03
536.162	0.04
536.509	0.04
536.857	0.04
537.205	0.04
537.552	0.04
537.9	0.03
538.248	0.03
538.595	0.03
538.943	0.04
539.29	0.03
539.637	0.03
539.985	0.03
540.332	0.03
540.679	0.03
541.026	0.03
541.373	0.04
541.721	0.03
542.068	0.03
542.415	0.02
542.762	0.03
543.108	0.01
543.455	0.02
543.802	0.02
544.149	0.02
544.496	0.02
544.842	0.02
545.189	0.01
545.535	0.02
545.882	0.02
546.228	0.02
546.575	0.01
546.921	0.02
547.267	0.01
547.614	0.02
547.96	0.02
548.306	0.02
548.652	0.01
548.998	0.03
549.344	0.02
549.69	0.02
550.036	0.02
550.382	0.02
550.728	0.01
551.074	0.02
551.42	0.02
551.765	0.02
552.111	0.03
552.457	0.03
552.802	0.02
553.148	0.02
553.493	0.02
553.839	0.03
554.184	0.03
554.529	0.02
554.875	0.03
555.22	0.03
555.565	0.03
555.91	0.02
556.255	0.03
556.6	0.02
556.945	0.02
557.29	0.02
557.635	0.03
557.98	0.03
558.325	0.03
558.67	0.02
559.014	0.02
559.359	0.03
559.704	0.03
560.048	0.02
560.393	0.02
560.737	0.01
561.082	0.02
561.426	0.01
561.77	0.02
562.115	0.02
562.459	0.01
562.803	0.01
563.147	0.02
563.491	0.02
563.835	0.02
564.179	0.02
564.523	0.01
564.867	0.02
565.211	0.02
565.555	0.02
565.899	0.02
566.242	0.02
566.586	0.01
566.93	0.02
567.273	0.02
567.617	0.02
567.96	0.02
568.304	0.03
568.647	0.02
568.99	0.02
569.334	0.03
569.677	0.02
570.02	0.02
570.363	0.03
570.706	0.02
571.049	0.02
571.392	0.02
571.735	0.02
572.078	0.03
572.421	0.03
572.764	0.02
573.106	0.02
573.449	0.02
573.792	0.02
574.134	0.02
574.477	0.02
574.819	0.02
575.162	0.01
575.504	0.02
575.847	0.02
576.189	0.02
576.531	0.02
576.873	0.02
577.215	0.02
577.558	0.02
577.9	0.02
578.242	0.02
578.584	0.02
578.926	0.02
579.267	0.02
579.609	0.02
579.951	0.02
580.293	0.02
580.634	0.03
580.976	0.02
581.318	0.02
581.659	0.01
582.001	0.02
582.342	0.02
582.683	0.02
583.025	0.02
583.366	0.01
583.707	0.02
584.049	0.02
584.39	0.02
584.731	0.01
585.072	0.02
585.413	0.03
585.754	0.02
586.095	0.03
586.435	0.02
586.776	0.03
587.117	0.02
587.458	0.02
587.798	0.02
588.139	0.02
588.48	0.02
588.82	0.02
589.161	0.01
589.501	0.02
589.841	0.02
590.182	0.02
590.522	0.01
590.862	0.02
591.202	0.02
591.542	0.02
591.882	0.01
592.222	0.01
592.562	0.02
592.902	0.01
593.242	0.01
593.582	0.03
593.922	0.01
594.261	0.02
594.601	0.02
594.941	0.02
595.28	0.02
595.62	0.02
595.959	0.01
596.299	0.02
596.638	0.02
596.977	0.02
597.317	0.03
597.656	0.02
597.995	0.01
598.334	0.02
598.673	0.02
599.012	0.02
599.351	0.02
599.69	0.01
600.029	0.02
600.368	0.02
600.707	0.01
601.046	0.02
601.384	0.02
601.723	0.03
602.061	0.02
602.4	0.03
602.738	0.03
603.077	0.02
603.415	0.02
603.754	0.02
604.092	0.02
604.43	0.02
604.768	0.02
605.107	0.02
605.445	0.02
605.783	0.02
606.121	0.01
606.459	0.02
606.796	0.02
607.134	0.02
607.472	0.02
607.81	0.02
608.148	0.02
608.485	0.02
608.823	0.02
609.16	0.02
609.498	0.02
609.835	0.02
610.173	0.02
610.51	0.02
610.847	0.02
611.185	0.03
611.522	0.02
611.859	0.03
612.196	0.02
612.533	0.03
612.87	0.03
613.207	0.03
613.544	0.03
613.881	0.03
614.217	0.03
614.554	0.03
614.891	0.03
615.228	0.03
615.564	0.03
615.901	0.03
616.237	0.03
616.574	0.03
616.91	0.03
617.246	0.03
617.583	0.03
617.919	0.04
618.255	0.04
618.591	0.04
618.927	0.03
619.263	0.04
619.599	0.04
619.935	0.04
620.271	0.03
620.607	0.03
620.943	0.04
621.279	0.03
621.614	0.04
621.95	0.03
622.286	0.03
622.621	0.03
622.957	0.03
623.292	0.02
623.627	0.02
623.963	0.03
624.298	0.02
624.633	0.02
624.968	0.02
625.304	0.02
625.639	0.02
625.974	0.02
626.309	0.02
626.644	0.03
626.979	0.03
627.313	0.02
627.648	0.02
627.983	0.02
628.318	0.01
628.652	0.02
628.987	0.02
629.321	0.02
629.656	0.02
629.99	0.02
630.325	0.02
630.659	0.02
630.993	0.02
631.327	0.02
631.662	0.02
631.996	0.02
632.33	0.02
632.664	0.02
632.998	0.02
633.332	0.02
633.666	0.02
633.999	0.02
634.333	0.02
634.667	0.02
635.001	0.02
635.334	0.02
635.668	0.02
636.001	0.02
636.335	0.02
636.668	0.02
637.001	0.01
637.335	0.02
637.668	0.02
638.001	0.01
638.334	0.01
638.668	0.01
639.001	0.02
639.334	0.01
639.667	0.01
639.999	0.01
640.332	0.01
640.665	0.01
640.998	0.01
641.331	0.01
641.663	0.01
641.996	0.01
642.328	0.02
642.661	0.02
642.993	0.01
643.326	0.02
643.658	0.01
643.99	0.01
644.323	0.01
644.655	0.01
644.987	0.02
645.319	0.01
645.651	0.02
645.983	0.02
646.315	0.01
646.647	0.02
646.979	0.03
647.31	0.02
647.642	0.02
647.974	0.02
648.305	0.03
648.637	0.02
648.968	0.02
649.3	0.02
649.631	0.03
649.963	0.02
650.294	0.03
650.625	0.02
650.957	0.03
651.288	0.03
651.619	0.03
651.95	0.03
652.281	0.03
652.612	0.02
652.943	0.03
653.274	0.03
653.604	0.03
653.935	0.02
654.266	0.03
654.596	0.02
654.927	0.02
655.258	0.03
655.588	0.03
655.918	0.03
656.249	0.01
656.579	0.02
656.909	0.03
657.24	0.03
657.57	0.03
657.9	0.03
658.23	0.03
658.56	0.04
658.89	0.03
659.22	0.03
659.55	0.03
659.88	0.03
660.209	0.03
660.539	0.04
660.869	0.04
661.198	0.04
661.528	0.03
661.857	0.03
662.187	0.04
662.516	0.03
662.846	0.03
663.175	0.04
663.504	0.03
663.833	0.03
664.163	0.04
664.492	0.03
664.821	0.03
665.15	0.03
665.479	0.03
665.807	0.03
666.136	0.03
666.465	0.03
666.794	0.03
667.122	0.03
667.451	0.03
667.78	0.03
668.108	0.03
668.437	0.02
668.765	0.03
669.093	0.04
669.422	0.03
669.75	0.03
670.078	0.03
670.406	0.03
670.734	0.03
671.062	0.03
671.39	0.03
671.718	0.03
672.046	0.02
672.374	0.03
672.702	0.03
673.029	0.02
673.357	0.03
673.685	0.04
674.012	0.03
674.34	0.03
674.667	0.04
674.995	0.03
675.322	0.04
675.649	0.03
675.977	0.03
676.304	0.04
676.631	0.04
676.958	0.03
677.285	0.03
677.612	0.02
677.939	0.04
678.266	0.03
678.593	0.03
678.92	0.03
679.246	0.03
679.573	0.04
679.9	0.03
680.226	0.03
680.553	0.03
680.879	0.04
681.206	0.03
681.532	0.03
681.858	0.03
682.184	0.03
682.511	0.03
682.837	0.03
683.163	0.03
683.489	0.03
683.815	0.02
684.141	0.03
684.467	0.02
684.793	0.03
685.118	0.02
685.444	0.03
685.77	0.03
686.095	0.03
686.421	0.03
686.746	0.03
687.072	0.04
687.397	0.03
687.723	0.04
688.048	0.04
688.373	0.03
688.698	0.04
689.023	0.03
689.349	0.04
689.674	0.04
689.999	0.03
690.323	0.02
690.648	0.03
690.973	0.02
691.298	0.03
691.623	0.03
691.947	0.03
692.272	0.03
692.596	0.03
692.921	0.04
693.245	0.02
693.57	0.03
693.894	0.03
694.218	0.03
694.543	0.03
694.867	0.03
695.191	0.03
695.515	0.03
695.839	0.02
696.163	0.03
696.487	0.03
696.811	0.02
697.135	0.04
697.458	0.03
697.782	0.03
698.106	0.03
698.429	0.03
698.753	0.03
699.076	0.03
699.4	0.03
699.723	0.03
700.046	0.03
700.37	0.03
700.693	0.03
701.016	0.03
701.339	0.03
701.662	0.04
701.985	0.04
702.308	0.03
702.631	0.03
702.954	0.03
703.277	0.03
703.599	0.03
703.922	0.03
704.245	0.03
704.567	0.03
704.89	0.02
705.212	0.02
705.535	0.02
705.857	0.02
706.179	0.02
706.502	0.02
706.824	0.02
707.146	0.02
707.468	0.02
707.79	0.02
708.112	0.03
708.434	0.02
708.756	0.03
709.078	0.03
709.399	0.03
709.721	0.02
710.043	0.03
710.364	0.03
710.686	0.03
711.007	0.03
711.329	0.03
711.65	0.03
711.972	0.04
712.293	0.03
712.614	0.03
712.935	0.03
713.256	0.04
713.577	0.04
713.898	0.03
714.219	0.03
714.54	0.03
714.861	0.03
715.182	0.03
715.503	0.02
715.823	0.03
716.144	0.02
716.464	0.02
716.785	0.02
717.105	0.02
717.426	0.02
717.746	0.03
718.066	0.02
718.387	0.02
718.707	0.01
719.027	0.02
719.347	0.01
719.667	0.02
719.987	0.01
720.307	0.01
720.627	0.02
720.947	0.02
721.266	0.02
721.586	0.02
721.906	0.02
722.225	0.01
722.545	0.02
