Data from 12-12-AQDScycling_Absorbance__737__00737.txt Node

Date: Tue Dec 12 14:00:59 EST 2023
User: kyuminlee
Spectrometer: FLMS00943
Trigger mode: 0
Integration Time (sec): 1.000000E-1
Scans to average: 1
Electric dark correction enabled: true
Nonlinearity correction enabled: false
Boxcar width: 0
XAxis mode: Wavelengths
Number of Pixels in Spectrum: 2048
>>>>>Begin Spectral Data<<<<<
179.651	-0
180.037	-0
180.424	-0
180.81	-0.43
181.197	-0.09
181.583	-0.15
181.97	-0.33
182.356	-0
182.743	-0.84
183.129	0.39
183.515	-0
183.901	-2.54
184.288	0.32
184.674	-0
185.06	-0.85
185.446	-0
185.832	-1.16
186.218	-0.07
186.604	-0
186.99	-0
187.376	-0
187.762	-0
188.148	0.21
188.534	0.07
188.92	-0
189.305	0.06
189.691	0.2
190.077	0.17
190.463	0.19
190.848	0.09
191.234	-0.04
191.619	0.11
192.005	0.15
192.391	0.15
192.776	0.12
193.161	0.22
193.547	0.13
193.932	-0.04
194.318	0.01
194.703	0.09
195.088	0.19
195.473	0.19
195.859	0.13
196.244	0.11
196.629	0.07
197.014	0.03
197.399	0.14
197.784	0.25
198.169	0.12
198.554	0.32
198.939	0.1
199.324	0.13
199.709	0.13
200.094	0.02
200.478	0.16
200.863	0.13
201.248	0.14
201.633	0.15
202.017	0.12
202.402	0.04
202.787	0.1
203.171	0.16
203.556	0.17
203.94	0.09
204.325	0.16
204.709	0.29
205.093	0.07
205.478	0.19
205.862	0.17
206.246	0.35
206.631	0.2
207.015	0.08
207.399	0.23
207.783	0.23
208.167	0.15
208.551	0.14
208.935	0.1
209.319	0.11
209.703	0.21
210.087	0.19
210.471	0.07
210.855	0.17
211.239	0.26
211.623	0.25
212.007	0.22
212.39	0.3
212.774	0.07
213.158	0.08
213.541	0.11
213.925	0.27
214.309	0.26
214.692	0.44
215.076	0.19
215.459	0.15
215.842	0.15
216.226	0.32
216.609	0.25
216.993	0.21
217.376	0.19
217.759	0.2
218.142	0.27
218.525	0.42
218.909	0.48
219.292	0.33
219.675	0.39
220.058	0.42
220.441	0.46
220.824	0.36
221.207	0.62
221.59	0.48
221.973	0.63
222.355	0.66
222.738	0.66
223.121	0.62
223.504	0.56
223.886	0.79
224.269	0.79
224.652	0.54
225.034	0.84
225.417	0.82
225.799	0.85
226.182	0.86
226.564	0.83
226.947	0.79
227.329	0.77
227.711	0.91
228.094	1
228.476	0.94
228.858	0.8
229.24	0.84
229.623	0.94
230.005	0.87
230.387	0.87
230.769	0.79
231.151	0.99
231.533	1
231.915	1
232.297	1.1
232.679	0.92
233.061	0.96
233.442	1.04
233.824	0.89
234.206	1.07
234.588	1.22
234.969	0.96
235.351	1.1
235.733	1.07
236.114	1.24
236.496	1.1
236.877	1.18
237.259	1.05
237.64	1.02
238.022	1.04
238.403	1.04
238.784	1
239.165	0.9
239.547	1.11
239.928	1.25
240.309	1.05
240.69	0.97
241.071	1.18
241.452	1.06
241.834	1.16
242.215	1.09
242.595	1.09
242.976	1.08
243.357	1.12
243.738	1.02
244.119	1.25
244.5	1.02
244.881	1.15
245.261	1.24
245.642	1.16
246.023	1.17
246.403	1.25
246.784	1.22
247.164	1.27
247.545	1.23
247.925	1.19
248.306	1.37
248.686	1.34
249.067	1.26
249.447	1.29
249.827	1.44
250.207	1.38
250.588	1.24
250.968	1.56
251.348	1.33
251.728	1.55
252.108	1.36
252.488	1.32
252.868	1.53
253.248	1.43
253.628	1.32
254.008	1.42
254.388	1.4
254.768	1.51
255.147	1.37
255.527	1.47
255.907	1.37
256.287	1.31
256.666	1.43
257.046	1.48
257.425	1.55
257.805	1.36
258.184	1.33
258.564	1.39
258.943	1.33
259.323	1.43
259.702	1.48
260.081	1.53
260.461	1.49
260.84	1.59
261.219	1.7
261.598	1.44
261.977	1.51
262.356	1.47
262.736	1.52
263.115	1.41
263.494	1.41
263.873	1.44
264.251	1.55
264.63	1.72
265.009	1.53
265.388	1.45
265.767	1.36
266.145	1.35
266.524	1.41
266.903	1.39
267.281	1.45
267.66	1.66
268.039	1.43
268.417	1.38
268.796	1.36
269.174	1.45
269.552	1.39
269.931	1.35
270.309	1.49
270.687	1.62
271.066	1.79
271.444	1.26
271.822	1.41
272.2	1.39
272.578	1.44
272.956	1.43
273.334	1.33
273.712	1.33
274.09	1.44
274.468	1.3
274.846	1.23
275.224	1.47
275.602	1.3
275.98	1.55
276.357	1.33
276.735	1.42
277.113	1.38
277.49	1.4
277.868	1.27
278.246	1.46
278.623	1.37
279.001	1.32
279.378	1.46
279.756	1.29
280.133	1.55
280.51	1.37
280.888	1.52
281.265	1.35
281.642	1.47
282.019	1.7
282.396	1.52
282.773	1.41
283.151	1.51
283.528	1.42
283.905	1.38
284.282	1.47
284.659	1.61
285.035	1.36
285.412	1.47
285.789	1.45
286.166	1.45
286.543	1.53
286.919	1.54
287.296	1.43
287.673	1.57
288.049	1.62
288.426	1.57
288.802	1.57
289.179	1.42
289.555	1.77
289.932	1.36
290.308	1.29
290.684	1.42
291.061	1.31
291.437	1.47
291.813	1.4
292.189	1.3
292.565	1.37
292.942	1.44
293.318	1.35
293.694	1.36
294.07	1.3
294.446	1.44
294.822	1.51
295.197	1.47
295.573	1.43
295.949	1.4
296.325	1.48
296.701	1.52
297.076	1.48
297.452	1.52
297.828	1.45
298.203	1.61
298.579	1.48
298.954	1.5
299.33	1.38
299.705	1.4
300.081	1.6
300.456	1.53
300.831	1.38
301.206	1.4
301.582	1.58
301.957	1.46
302.332	1.53
302.707	1.45
303.082	1.4
303.457	1.53
303.832	1.58
304.207	1.35
304.582	1.53
304.957	1.42
305.332	1.6
305.707	1.62
306.082	1.6
306.456	1.57
306.831	1.43
307.206	1.6
307.58	1.41
307.955	1.47
308.33	1.62
308.704	1.4
309.079	1.42
309.453	1.6
309.828	1.56
310.202	1.38
310.576	1.44
310.951	1.53
311.325	1.64
311.699	1.51
312.073	1.45
312.447	1.46
312.821	1.46
313.196	1.53
313.57	1.47
313.944	1.41
314.317	1.37
314.691	1.51
315.065	1.55
315.439	1.57
315.813	1.51
316.187	1.56
316.56	1.58
316.934	1.53
317.308	1.43
317.681	1.51
318.055	1.4
318.428	1.42
318.802	1.59
319.175	1.48
319.549	1.6
319.922	1.35
320.295	1.33
320.669	1.64
321.042	1.54
321.415	1.64
321.788	1.6
322.162	1.47
322.535	1.69
322.908	1.7
323.281	1.52
323.654	1.73
324.027	1.48
324.4	1.68
324.773	1.55
325.145	1.58
325.518	1.36
325.891	1.53
326.264	1.56
326.636	1.54
327.009	1.48
327.382	1.5
327.754	1.6
328.127	1.52
328.499	1.5
328.872	1.49
329.244	1.57
329.616	1.44
329.989	1.56
330.361	1.51
330.733	1.41
331.106	1.51
331.478	1.54
331.85	1.48
332.222	1.38
332.594	1.53
332.966	1.51
333.338	1.58
333.71	1.58
334.082	1.7
334.454	1.63
334.826	1.5
335.197	1.58
335.569	1.62
335.941	1.5
336.312	1.5
336.684	1.43
337.056	1.47
337.427	1.61
337.799	1.57
338.17	1.66
338.542	1.44
338.913	1.56
339.284	1.67
339.656	1.53
340.027	1.53
340.398	1.59
340.769	1.52
341.141	1.81
341.512	1.45
341.883	1.66
342.254	1.55
342.625	1.54
342.996	1.49
343.367	1.63
343.738	1.51
344.108	1.44
344.479	1.77
344.85	1.5
345.221	1.69
345.591	1.42
345.962	1.47
346.333	1.6
346.703	1.27
347.074	1.41
347.444	1.32
347.815	1.36
348.185	1.42
348.556	1.35
348.926	1.41
349.296	1.47
349.666	1.34
350.037	1.33
350.407	1.25
350.777	1.42
351.147	1.54
351.517	1.41
351.887	1.33
352.257	1.36
352.627	1.33
352.997	1.32
353.367	1.38
353.737	1.37
354.106	1.38
354.476	1.31
354.846	1.41
355.216	1.45
355.585	1.46
355.955	1.32
356.324	1.37
356.694	1.41
357.063	1.32
357.433	1.29
357.802	1.38
358.171	1.34
358.541	1.26
358.91	1.35
359.279	1.3
359.648	1.24
360.017	1.27
360.387	1.29
360.756	1.25
361.125	1.31
361.494	1.26
361.863	1.21
362.231	1.22
362.6	1.25
362.969	1.15
363.338	1.16
363.707	1.23
364.075	1.16
364.444	1.08
364.813	1.15
365.181	1.13
365.55	1.1
365.918	1.17
366.287	1.15
366.655	1.13
367.024	1.13
367.392	1.13
367.76	1.11
368.128	1.11
368.497	1.06
368.865	1.1
369.233	1.06
369.601	1.1
369.969	1.07
370.337	1.09
370.705	1.07
371.073	1.09
371.441	1.04
371.809	1
372.177	1.09
372.544	1.06
372.912	1.01
373.28	1.06
373.647	1.05
374.015	1.08
374.383	1.09
374.75	1.11
375.118	1.06
375.485	1.04
375.853	1.03
376.22	1.03
376.587	1.04
376.955	1.13
377.322	1.11
377.689	1.02
378.056	1.04
378.423	1.01
378.79	1.15
379.157	1
379.524	1.08
379.891	1.06
380.258	1.06
380.625	1
380.992	1.02
381.359	1.11
381.726	1.11
382.092	1.1
382.459	1.06
382.826	1.12
383.192	1.11
383.559	1.12
383.925	1.07
384.292	1.16
384.658	1.21
385.025	1.11
385.391	1.18
385.757	1.14
386.123	1.09
386.49	1.11
386.856	1.24
387.222	1.23
387.588	1.19
387.954	1.26
388.32	1.3
388.686	1.22
389.052	1.16
389.418	1.17
389.784	1.22
390.15	1.18
390.515	1.1
390.881	1.27
391.247	1.18
391.613	1.21
391.978	1.16
392.344	1.22
392.709	1.23
393.075	1.22
393.44	1.24
393.806	1.17
394.171	1.16
394.536	1.17
394.902	1.23
395.267	1.18
395.632	1.13
395.997	1.2
396.362	1.11
396.727	1.17
397.092	1.12
397.457	1.14
397.822	1.15
398.187	1.15
398.552	1.07
398.917	1.15
399.282	1.14
399.646	1.07
400.011	1.14
400.376	1.08
400.74	1.1
401.105	1.11
401.47	1.08
401.834	1.06
402.199	1.07
402.563	1.03
402.927	1.05
403.292	1.11
403.656	1.02
404.02	1.06
404.384	1.08
404.749	1
405.113	1.08
405.477	1.03
405.841	0.98
406.205	0.99
406.569	1.01
406.933	0.98
407.296	0.97
407.66	0.97
408.024	1
408.388	0.97
408.752	0.95
409.115	0.93
409.479	0.95
409.842	0.93
410.206	0.93
410.569	0.92
410.933	0.93
411.296	0.87
411.66	0.92
412.023	0.87
412.386	0.92
412.749	0.85
413.113	0.87
413.476	0.84
413.839	0.92
414.202	0.84
414.565	0.84
414.928	0.87
415.291	0.82
415.654	0.82
416.017	0.87
416.38	0.81
416.742	0.83
417.105	0.82
417.468	0.82
417.83	0.85
418.193	0.82
418.556	0.81
418.918	0.78
419.281	0.82
419.643	0.84
420.005	0.81
420.368	0.84
420.73	0.79
421.092	0.82
421.455	0.8
421.817	0.78
422.179	0.78
422.541	0.78
422.903	0.79
423.265	0.79
423.627	0.78
423.989	0.77
424.351	0.74
424.713	0.79
425.075	0.75
425.436	0.75
425.798	0.74
426.16	0.76
426.521	0.77
426.883	0.79
427.245	0.76
427.606	0.74
427.967	0.71
428.329	0.75
428.69	0.76
429.052	0.76
429.413	0.75
429.774	0.77
430.135	0.75
430.497	0.74
430.858	0.72
431.219	0.73
431.58	0.72
431.941	0.72
432.302	0.72
432.663	0.74
433.024	0.75
433.384	0.74
433.745	0.69
434.106	0.72
434.467	0.72
434.827	0.73
435.188	0.72
435.548	0.72
435.909	0.71
436.269	0.73
436.63	0.66
436.99	0.7
437.351	0.68
437.711	0.69
438.071	0.67
438.431	0.68
438.792	0.67
439.152	0.66
439.512	0.66
439.872	0.65
440.232	0.69
440.592	0.67
440.952	0.67
441.312	0.64
441.671	0.66
442.031	0.63
442.391	0.64
442.751	0.67
443.11	0.65
443.47	0.62
443.83	0.63
444.189	0.65
444.549	0.63
444.908	0.63
445.267	0.61
445.627	0.61
445.986	0.6
446.345	0.59
446.705	0.6
447.064	0.6
447.423	0.6
447.782	0.58
448.141	0.59
448.5	0.55
448.859	0.59
449.218	0.57
449.577	0.58
449.936	0.57
450.295	0.58
450.653	0.57
451.012	0.58
451.371	0.58
451.729	0.55
452.088	0.56
452.447	0.57
452.805	0.56
453.163	0.56
453.522	0.54
453.88	0.54
454.239	0.55
454.597	0.53
454.955	0.53
455.313	0.53
455.671	0.53
456.029	0.51
456.388	0.5
456.746	0.51
457.104	0.51
457.461	0.49
457.819	0.49
458.177	0.48
458.535	0.48
458.893	0.47
459.25	0.46
459.608	0.46
459.966	0.46
460.323	0.45
460.681	0.44
461.038	0.45
461.396	0.44
461.753	0.44
462.111	0.44
462.468	0.43
462.825	0.42
463.182	0.42
463.54	0.4
463.897	0.41
464.254	0.41
464.611	0.4
464.968	0.4
465.325	0.4
465.682	0.39
466.039	0.38
466.395	0.38
466.752	0.38
467.109	0.38
467.466	0.37
467.822	0.38
468.179	0.36
468.535	0.36
468.892	0.36
469.248	0.35
469.605	0.34
469.961	0.34
470.318	0.35
470.674	0.34
471.03	0.33
471.386	0.33
471.743	0.33
472.099	0.33
472.455	0.32
472.811	0.31
473.167	0.32
473.523	0.31
473.879	0.31
474.235	0.3
474.59	0.3
474.946	0.3
475.302	0.3
475.657	0.29
476.013	0.29
476.369	0.27
476.724	0.28
477.08	0.28
477.435	0.28
477.791	0.26
478.146	0.27
478.501	0.27
478.857	0.26
479.212	0.26
479.567	0.25
479.922	0.24
480.277	0.24
480.632	0.24
480.987	0.24
481.342	0.24
481.697	0.23
482.052	0.23
482.407	0.23
482.762	0.23
483.116	0.22
483.471	0.22
483.826	0.22
484.18	0.22
484.535	0.21
484.89	0.21
485.244	0.21
485.598	0.21
485.953	0.21
486.307	0.2
486.661	0.21
487.016	0.19
487.37	0.2
487.724	0.2
488.078	0.2
488.432	0.19
488.786	0.19
489.14	0.19
489.494	0.18
489.848	0.18
490.202	0.19
490.556	0.18
490.91	0.18
491.263	0.18
491.617	0.18
491.971	0.18
492.324	0.17
492.678	0.18
493.031	0.18
493.385	0.18
493.738	0.17
494.091	0.17
494.445	0.17
494.798	0.17
495.151	0.16
495.504	0.17
495.857	0.17
496.21	0.17
496.564	0.16
496.916	0.17
497.269	0.16
497.622	0.16
497.975	0.16
498.328	0.16
498.681	0.15
499.033	0.15
499.386	0.15
499.739	0.15
500.091	0.14
500.444	0.14
500.796	0.15
501.149	0.14
501.501	0.15
501.854	0.15
502.206	0.15
502.558	0.15
502.91	0.15
503.263	0.15
503.615	0.15
503.967	0.14
504.319	0.15
504.671	0.15
505.023	0.15
505.375	0.14
505.726	0.14
506.078	0.15
506.43	0.14
506.782	0.14
507.133	0.14
507.485	0.15
507.837	0.15
508.188	0.14
508.54	0.14
508.891	0.15
509.243	0.14
509.594	0.14
509.945	0.13
510.296	0.14
510.648	0.14
510.999	0.13
511.35	0.14
511.701	0.14
512.052	0.14
512.403	0.14
512.754	0.14
513.105	0.14
513.456	0.14
513.807	0.13
514.157	0.14
514.508	0.14
514.859	0.14
515.209	0.14
515.56	0.14
515.91	0.13
516.261	0.14
516.611	0.13
516.962	0.14
517.312	0.13
517.662	0.14
518.013	0.14
518.363	0.14
518.713	0.14
519.063	0.14
519.413	0.15
519.763	0.14
520.113	0.14
520.463	0.15
520.813	0.15
521.163	0.14
521.512	0.14
521.862	0.14
522.212	0.14
522.562	0.15
522.911	0.14
523.261	0.14
523.61	0.14
523.96	0.14
524.309	0.15
524.658	0.15
525.008	0.14
525.357	0.14
525.706	0.14
526.056	0.14
526.405	0.14
526.754	0.14
527.103	0.13
527.452	0.14
527.801	0.14
528.15	0.14
528.499	0.14
528.847	0.15
529.196	0.15
529.545	0.15
529.893	0.15
530.242	0.15
530.591	0.15
530.939	0.15
531.288	0.15
531.636	0.15
531.985	0.14
532.333	0.15
532.681	0.14
533.029	0.15
533.378	0.15
533.726	0.15
534.074	0.15
534.422	0.15
534.77	0.15
535.118	0.15
535.466	0.15
535.814	0.14
536.162	0.15
536.509	0.15
536.857	0.15
537.205	0.16
537.552	0.16
537.9	0.16
538.248	0.15
538.595	0.15
538.943	0.16
539.29	0.15
539.637	0.15
539.985	0.15
540.332	0.15
540.679	0.15
541.026	0.15
541.373	0.16
541.721	0.14
542.068	0.15
542.415	0.16
542.762	0.15
543.108	0.14
543.455	0.14
543.802	0.14
544.149	0.15
544.496	0.14
544.842	0.14
545.189	0.14
545.535	0.14
545.882	0.14
546.228	0.14
546.575	0.14
546.921	0.13
547.267	0.14
547.614	0.14
547.96	0.14
548.306	0.14
548.652	0.14
548.998	0.15
549.344	0.14
549.69	0.14
550.036	0.14
550.382	0.14
550.728	0.14
551.074	0.14
551.42	0.14
551.765	0.15
552.111	0.14
552.457	0.16
552.802	0.14
553.148	0.15
553.493	0.14
553.839	0.15
554.184	0.14
554.529	0.15
554.875	0.15
555.22	0.15
555.565	0.15
555.91	0.14
556.255	0.16
556.6	0.15
556.945	0.14
557.29	0.15
557.635	0.15
557.98	0.16
558.325	0.15
558.67	0.15
559.014	0.15
559.359	0.15
559.704	0.16
560.048	0.15
560.393	0.15
560.737	0.14
561.082	0.14
561.426	0.14
561.77	0.15
562.115	0.14
562.459	0.15
562.803	0.14
563.147	0.15
563.491	0.15
563.835	0.15
564.179	0.15
564.523	0.15
564.867	0.14
565.211	0.15
565.555	0.15
565.899	0.16
566.242	0.15
566.586	0.15
566.93	0.15
567.273	0.15
567.617	0.15
567.96	0.15
568.304	0.16
568.647	0.15
568.99	0.15
569.334	0.16
569.677	0.15
570.02	0.15
570.363	0.16
570.706	0.15
571.049	0.16
571.392	0.16
571.735	0.16
572.078	0.16
572.421	0.16
572.764	0.16
573.106	0.16
573.449	0.15
573.792	0.15
574.134	0.15
574.477	0.16
574.819	0.15
575.162	0.15
575.504	0.14
575.847	0.15
576.189	0.16
576.531	0.15
576.873	0.15
577.215	0.15
577.558	0.15
577.9	0.15
578.242	0.15
578.584	0.15
578.926	0.15
579.267	0.15
579.609	0.15
579.951	0.15
580.293	0.15
580.634	0.16
580.976	0.15
581.318	0.15
581.659	0.15
582.001	0.15
582.342	0.15
582.683	0.15
583.025	0.15
583.366	0.15
583.707	0.15
584.049	0.15
584.39	0.15
584.731	0.15
585.072	0.15
585.413	0.15
585.754	0.15
586.095	0.15
586.435	0.15
586.776	0.15
587.117	0.14
587.458	0.15
587.798	0.15
588.139	0.14
588.48	0.14
588.82	0.14
589.161	0.14
589.501	0.14
589.841	0.15
590.182	0.14
590.522	0.15
590.862	0.15
591.202	0.15
591.542	0.14
591.882	0.14
592.222	0.15
592.562	0.14
592.902	0.15
593.242	0.14
593.582	0.15
593.922	0.15
594.261	0.14
594.601	0.14
594.941	0.14
595.28	0.15
595.62	0.15
595.959	0.15
596.299	0.14
596.638	0.14
596.977	0.15
597.317	0.15
597.656	0.15
597.995	0.15
598.334	0.15
598.673	0.15
599.012	0.15
599.351	0.16
599.69	0.15
600.029	0.16
600.368	0.16
600.707	0.16
601.046	0.16
601.384	0.16
601.723	0.15
602.061	0.15
602.4	0.16
602.738	0.15
603.077	0.15
603.415	0.14
603.754	0.15
604.092	0.15
604.43	0.15
604.768	0.16
605.107	0.15
605.445	0.14
605.783	0.15
606.121	0.15
606.459	0.15
606.796	0.15
607.134	0.14
607.472	0.15
607.81	0.15
608.148	0.14
608.485	0.15
608.823	0.14
609.16	0.14
609.498	0.16
609.835	0.15
610.173	0.14
610.51	0.15
610.847	0.15
611.185	0.15
611.522	0.15
611.859	0.15
612.196	0.15
612.533	0.15
612.87	0.15
613.207	0.15
613.544	0.15
613.881	0.16
614.217	0.15
614.554	0.15
614.891	0.16
615.228	0.15
615.564	0.16
615.901	0.16
616.237	0.15
616.574	0.16
616.91	0.16
617.246	0.15
617.583	0.15
617.919	0.16
618.255	0.16
618.591	0.15
618.927	0.15
619.263	0.16
619.599	0.15
619.935	0.16
620.271	0.15
620.607	0.15
620.943	0.15
621.279	0.16
621.614	0.15
621.95	0.15
622.286	0.15
622.621	0.15
622.957	0.15
623.292	0.14
623.627	0.15
623.963	0.15
624.298	0.15
624.633	0.15
624.968	0.14
625.304	0.15
625.639	0.15
625.974	0.14
626.309	0.14
626.644	0.14
626.979	0.14
627.313	0.15
627.648	0.14
627.983	0.15
628.318	0.14
628.652	0.14
628.987	0.14
629.321	0.15
629.656	0.14
629.99	0.13
630.325	0.14
630.659	0.14
630.993	0.13
631.327	0.14
631.662	0.13
631.996	0.13
632.33	0.13
632.664	0.13
632.998	0.13
633.332	0.13
633.666	0.13
633.999	0.13
634.333	0.13
634.667	0.13
635.001	0.12
635.334	0.13
635.668	0.12
636.001	0.13
636.335	0.12
636.668	0.13
637.001	0.12
637.335	0.12
637.668	0.13
638.001	0.13
638.334	0.13
638.668	0.12
639.001	0.12
639.334	0.12
639.667	0.13
639.999	0.12
640.332	0.13
640.665	0.13
640.998	0.13
641.331	0.13
641.663	0.13
641.996	0.13
642.328	0.13
642.661	0.13
642.993	0.13
643.326	0.14
643.658	0.13
643.99	0.13
644.323	0.13
644.655	0.14
644.987	0.13
645.319	0.13
645.651	0.13
645.983	0.12
646.315	0.13
646.647	0.13
646.979	0.14
647.31	0.14
647.642	0.13
647.974	0.13
648.305	0.14
648.637	0.13
648.968	0.13
649.3	0.13
649.631	0.12
649.963	0.13
650.294	0.13
650.625	0.13
650.957	0.13
651.288	0.13
651.619	0.14
651.95	0.14
652.281	0.13
652.612	0.13
652.943	0.13
653.274	0.14
653.604	0.13
653.935	0.13
654.266	0.13
654.596	0.13
654.927	0.13
655.258	0.13
655.588	0.14
655.918	0.12
656.249	0.11
656.579	0.12
656.909	0.12
657.24	0.12
657.57	0.12
657.9	0.13
658.23	0.12
658.56	0.13
658.89	0.13
659.22	0.12
659.55	0.13
659.88	0.13
660.209	0.13
660.539	0.14
660.869	0.13
661.198	0.13
661.528	0.12
661.857	0.12
662.187	0.13
662.516	0.12
662.846	0.12
663.175	0.11
663.504	0.12
663.833	0.12
664.163	0.12
664.492	0.12
664.821	0.12
665.15	0.11
665.479	0.12
665.807	0.12
666.136	0.12
666.465	0.12
666.794	0.13
667.122	0.13
667.451	0.12
667.78	0.13
668.108	0.13
668.437	0.12
668.765	0.13
669.093	0.13
669.422	0.13
669.75	0.13
670.078	0.12
670.406	0.13
670.734	0.13
671.062	0.13
671.39	0.12
671.718	0.12
672.046	0.12
672.374	0.11
672.702	0.12
673.029	0.11
673.357	0.12
673.685	0.13
674.012	0.12
674.34	0.12
674.667	0.12
674.995	0.12
675.322	0.12
675.649	0.12
675.977	0.12
676.304	0.12
676.631	0.12
676.958	0.12
677.285	0.11
677.612	0.11
677.939	0.12
678.266	0.12
678.593	0.12
678.92	0.12
679.246	0.11
679.573	0.11
679.9	0.12
680.226	0.11
680.553	0.1
680.879	0.11
681.206	0.12
681.532	0.11
681.858	0.11
682.184	0.11
682.511	0.11
682.837	0.11
683.163	0.12
683.489	0.12
683.815	0.12
684.141	0.12
684.467	0.12
684.793	0.11
685.118	0.11
685.444	0.12
685.77	0.11
686.095	0.12
686.421	0.11
686.746	0.12
687.072	0.11
687.397	0.11
687.723	0.11
688.048	0.12
688.373	0.11
688.698	0.11
689.023	0.11
689.349	0.11
689.674	0.11
689.999	0.1
690.323	0.1
690.648	0.1
690.973	0.1
691.298	0.1
691.623	0.1
691.947	0.1
692.272	0.1
692.596	0.11
692.921	0.11
693.245	0.1
693.57	0.11
693.894	0.11
694.218	0.11
694.543	0.11
694.867	0.11
695.191	0.11
695.515	0.11
695.839	0.1
696.163	0.11
696.487	0.11
696.811	0.11
697.135	0.11
697.458	0.11
697.782	0.11
698.106	0.11
698.429	0.11
698.753	0.1
699.076	0.11
699.4	0.11
699.723	0.1
700.046	0.1
700.37	0.11
700.693	0.11
701.016	0.1
701.339	0.1
701.662	0.1
701.985	0.1
702.308	0.1
702.631	0.1
702.954	0.11
703.277	0.1
703.599	0.1
703.922	0.1
704.245	0.09
704.567	0.09
704.89	0.09
705.212	0.1
705.535	0.09
705.857	0.09
706.179	0.09
706.502	0.09
706.824	0.08
707.146	0.09
707.468	0.1
707.79	0.1
708.112	0.09
708.434	0.1
708.756	0.1
709.078	0.1
709.399	0.09
709.721	0.1
710.043	0.1
710.364	0.1
710.686	0.09
711.007	0.1
711.329	0.1
711.65	0.1
711.972	0.09
712.293	0.11
712.614	0.1
712.935	0.1
713.256	0.1
713.577	0.11
713.898	0.09
714.219	0.09
714.54	0.09
714.861	0.09
715.182	0.09
715.503	0.09
715.823	0.09
716.144	0.09
716.464	0.08
716.785	0.08
717.105	0.08
717.426	0.09
717.746	0.08
718.066	0.08
718.387	0.08
718.707	0.08
719.027	0.08
719.347	0.08
719.667	0.08
719.987	0.07
720.307	0.08
720.627	0.07
720.947	0.08
721.266	0.08
721.586	0.07
721.906	0.08
722.225	0.08
722.545	0.07
722.864	0.08
723.184	0.09
723.503	0.08
723.823	0.09
724.142	0.08
