Data from 12-12-AQDScycling_Absorbance__143__00143.txt Node

Date: Tue Dec 12 11:32:29 EST 2023
User: kyuminlee
Spectrometer: FLMS00943
Trigger mode: 0
Integration Time (sec): 1.000000E-1
Scans to average: 1
Electric dark correction enabled: true
Nonlinearity correction enabled: false
Boxcar width: 0
XAxis mode: Wavelengths
Number of Pixels in Spectrum: 2048
>>>>>Begin Spectral Data<<<<<
179.651	-0
180.037	-0
180.424	-0
180.81	-0.26
181.197	1.33
181.583	-0.56
181.97	-0
182.356	-0
182.743	-0.94
183.129	0.4
183.515	0.47
183.901	-2.1
184.288	0.26
184.674	-0
185.06	-0.96
185.446	-0
185.832	-0.99
186.218	0.25
186.604	0.15
186.99	-0
187.376	0.03
187.762	-0
188.148	0.37
188.534	-0.14
188.92	0.04
189.305	0.05
189.691	0.22
190.077	0.25
190.463	0.19
190.848	0.1
191.234	-0.08
191.619	0.15
192.005	0.19
192.391	0.22
192.776	0.01
193.161	0.18
193.547	0.13
193.932	0.14
194.318	0.1
194.703	0.02
195.088	0.23
195.473	0.18
195.859	0.13
196.244	0.22
196.629	-0.01
197.014	0.07
197.399	0.16
197.784	0.17
198.169	0.28
198.554	0.38
198.939	0.1
199.324	0.08
199.709	0.04
200.094	0.13
200.478	0.04
200.863	0.14
201.248	0.26
201.633	0.07
202.017	0.14
202.402	0.19
202.787	0.11
203.171	0.11
203.556	0.19
203.94	0.2
204.325	0.14
204.709	0.28
205.093	0.13
205.478	0.01
205.862	0.1
206.246	0.34
206.631	0.23
207.015	0.18
207.399	0.22
207.783	0.15
208.167	0.18
208.551	0.22
208.935	0.12
209.319	0.14
209.703	0.15
210.087	0.13
210.471	0.09
210.855	0.22
211.239	0.35
211.623	0.35
212.007	0.41
212.39	0.31
212.774	0.07
213.158	0.11
213.541	0.32
213.925	0.32
214.309	0.32
214.692	0.29
215.076	0.31
215.459	0.23
215.842	0.2
216.226	0.2
216.609	0.33
216.993	0.34
217.376	0.58
217.759	0.17
218.142	0.31
218.525	0.47
218.909	0.22
219.292	0.34
219.675	0.39
220.058	0.46
220.441	0.46
220.824	0.52
221.207	0.6
221.59	0.5
221.973	0.5
222.355	0.69
222.738	0.84
223.121	0.57
223.504	0.67
223.886	0.73
224.269	0.66
224.652	0.63
225.034	0.82
225.417	0.87
225.799	0.96
226.182	0.84
226.564	0.81
226.947	0.71
227.329	1.04
227.711	1.18
228.094	0.84
228.476	0.83
228.858	0.78
229.24	0.83
229.623	1.05
230.005	0.99
230.387	0.9
230.769	0.74
231.151	0.99
231.533	0.84
231.915	0.86
232.297	1.05
232.679	1
233.061	1.03
233.442	0.99
233.824	1.05
234.206	1
234.588	1.19
234.969	1.05
235.351	0.96
235.733	1.14
236.114	1.11
236.496	1.06
236.877	1.26
237.259	1.03
237.64	1.16
238.022	1.12
238.403	0.97
238.784	0.98
239.165	1.03
239.547	1.2
239.928	1.11
240.309	1.05
240.69	1.12
241.071	1.16
241.452	1.19
241.834	1.06
242.215	1.24
242.595	1.2
242.976	1.1
243.357	1.11
243.738	1.04
244.119	1.25
244.5	1.15
244.881	1.31
245.261	1.16
245.642	1.1
246.023	1.36
246.403	1.16
246.784	1.26
247.164	1.29
247.545	1.18
247.925	1.24
248.306	1.21
248.686	1.39
249.067	1.21
249.447	1.37
249.827	1.46
250.207	1.6
250.588	1.25
250.968	1.44
251.348	1.25
251.728	1.34
252.108	1.4
252.488	1.4
252.868	1.24
253.248	1.27
253.628	1.26
254.008	1.54
254.388	1.29
254.768	1.47
255.147	1.43
255.527	1.41
255.907	1.36
256.287	1.44
256.666	1.37
257.046	1.42
257.425	1.63
257.805	1.35
258.184	1.38
258.564	1.38
258.943	1.33
259.323	1.68
259.702	1.47
260.081	1.44
260.461	1.44
260.84	1.5
261.219	1.91
261.598	1.51
261.977	1.44
262.356	1.5
262.736	1.46
263.115	1.51
263.494	1.44
263.873	1.55
264.251	1.46
264.63	1.56
265.009	1.46
265.388	1.35
265.767	1.34
266.145	1.33
266.524	1.39
266.903	1.41
267.281	1.47
267.66	1.52
268.039	1.47
268.417	1.47
268.796	1.43
269.174	1.44
269.552	1.35
269.931	1.45
270.309	1.39
270.687	1.71
271.066	1.54
271.444	1.3
271.822	1.57
272.2	1.68
272.578	1.46
272.956	1.44
273.334	1.3
273.712	1.41
274.09	1.35
274.468	1.34
274.846	1.21
275.224	1.39
275.602	1.53
275.98	1.56
276.357	1.43
276.735	1.5
277.113	1.32
277.49	1.37
277.868	1.31
278.246	1.4
278.623	1.18
279.001	1.41
279.378	1.35
279.756	1.51
280.133	1.49
280.51	1.59
280.888	1.55
281.265	1.37
281.642	1.49
282.019	1.5
282.396	1.41
282.773	1.52
283.151	1.56
283.528	1.61
283.905	1.32
284.282	1.53
284.659	1.5
285.035	1.36
285.412	1.37
285.789	1.73
286.166	1.54
286.543	1.48
286.919	1.4
287.296	1.34
287.673	1.53
288.049	1.65
288.426	1.62
288.802	1.53
289.179	1.51
289.555	1.69
289.932	1.38
290.308	1.28
290.684	1.35
291.061	1.3
291.437	1.47
291.813	1.47
292.189	1.23
292.565	1.3
292.942	1.36
293.318	1.49
293.694	1.47
294.07	1.38
294.446	1.43
294.822	1.46
295.197	1.4
295.573	1.41
295.949	1.36
296.325	1.51
296.701	1.38
297.076	1.57
297.452	1.37
297.828	1.37
298.203	1.61
298.579	1.42
298.954	1.33
299.33	1.29
299.705	1.32
300.081	1.38
300.456	1.32
300.831	1.29
301.206	1.25
301.582	1.36
301.957	1.31
302.332	1.32
302.707	1.21
303.082	1.21
303.457	1.22
303.832	1.24
304.207	1.14
304.582	1.15
304.957	1.14
305.332	1.12
305.707	1.07
306.082	1.15
306.456	1.1
306.831	1.07
307.206	1.05
307.58	1.01
307.955	0.98
308.33	0.99
308.704	1.01
309.079	0.94
309.453	0.99
309.828	0.96
310.202	0.9
310.576	0.92
310.951	0.91
311.325	0.91
311.699	0.9
312.073	0.84
312.447	0.88
312.821	0.84
313.196	0.86
313.57	0.82
313.944	0.81
314.317	0.8
314.691	0.84
315.065	0.82
315.439	0.8
315.813	0.79
316.187	0.81
316.56	0.8
316.934	0.78
317.308	0.77
317.681	0.75
318.055	0.77
318.428	0.77
318.802	0.79
319.175	0.77
319.549	0.76
319.922	0.73
320.295	0.73
320.669	0.76
321.042	0.76
321.415	0.77
321.788	0.74
322.162	0.73
322.535	0.73
322.908	0.74
323.281	0.73
323.654	0.73
324.027	0.71
324.4	0.74
324.773	0.73
325.145	0.73
325.518	0.73
325.891	0.72
326.264	0.75
326.636	0.74
327.009	0.75
327.382	0.75
327.754	0.73
328.127	0.75
328.499	0.78
328.872	0.76
329.244	0.77
329.616	0.75
329.989	0.77
330.361	0.76
330.733	0.74
331.106	0.76
331.478	0.79
331.85	0.75
332.222	0.77
332.594	0.81
332.966	0.8
333.338	0.86
333.71	0.83
334.082	0.84
334.454	0.84
334.826	0.87
335.197	0.93
335.569	0.86
335.941	0.83
336.312	0.85
336.684	0.87
337.056	0.87
337.427	0.92
337.799	0.92
338.17	0.9
338.542	0.92
338.913	0.91
339.284	0.94
339.656	0.94
340.027	0.96
340.398	0.96
340.769	0.96
341.141	1
341.512	0.94
341.883	0.98
342.254	0.98
342.625	0.99
342.996	0.98
343.367	1.02
343.738	1.01
344.108	0.97
344.479	1.09
344.85	1.01
345.221	1.09
345.591	1.02
345.962	1.08
346.333	1.14
346.703	1.1
347.074	1.11
347.444	1.09
347.815	1.2
348.185	1.18
348.556	1.13
348.926	1.15
349.296	1.18
349.666	1.11
350.037	1.1
350.407	1.15
350.777	1.19
351.147	1.21
351.517	1.31
351.887	1.17
352.257	1.27
352.627	1.23
352.997	1.22
353.367	1.34
353.737	1.38
354.106	1.33
354.476	1.28
354.846	1.37
355.216	1.37
355.585	1.43
355.955	1.4
356.324	1.31
356.694	1.38
357.063	1.37
357.433	1.48
357.802	1.45
358.171	1.45
358.541	1.42
358.91	1.48
359.279	1.54
359.648	1.39
360.017	1.54
360.387	1.46
360.756	1.43
361.125	1.65
361.494	1.6
361.863	1.46
362.231	1.59
362.6	1.48
362.969	1.51
363.338	1.49
363.707	1.81
364.075	1.55
364.444	1.47
364.813	1.63
365.181	1.64
365.55	1.47
365.918	1.63
366.287	1.54
366.655	1.49
367.024	1.63
367.392	1.55
367.76	1.6
368.128	1.47
368.497	1.38
368.865	1.52
369.233	1.57
369.601	1.48
369.969	1.43
370.337	1.48
370.705	1.84
371.073	1.53
371.441	1.62
371.809	1.44
372.177	1.5
372.544	1.58
372.912	1.46
373.28	1.48
373.647	1.76
374.015	1.65
374.383	1.95
374.75	1.69
375.118	1.52
375.485	1.73
375.853	1.72
376.22	1.47
376.587	1.49
376.955	1.69
377.322	1.63
377.689	1.73
378.056	1.52
378.423	1.57
378.79	1.7
379.157	1.56
379.524	1.57
379.891	1.44
380.258	1.57
380.625	1.58
380.992	1.74
381.359	1.63
381.726	1.78
382.092	1.62
382.459	1.47
382.826	1.54
383.192	1.68
383.559	1.64
383.925	1.59
384.292	1.54
384.658	1.94
385.025	1.69
385.391	1.57
385.757	1.72
386.123	1.64
386.49	1.6
386.856	1.58
387.222	1.66
387.588	1.51
387.954	1.66
388.32	1.58
388.686	1.59
389.052	1.59
389.418	1.77
389.784	1.6
390.15	1.65
390.515	1.43
390.881	1.6
391.247	1.52
391.613	1.5
391.978	1.45
392.344	1.55
392.709	1.67
393.075	1.62
393.44	1.57
393.806	1.66
394.171	1.43
394.536	1.78
394.902	1.62
395.267	1.59
395.632	1.51
395.997	1.53
396.362	1.6
396.727	1.55
397.092	1.57
397.457	1.48
397.822	1.45
398.187	1.51
398.552	1.52
398.917	1.59
399.282	1.42
399.646	1.59
400.011	1.83
400.376	1.48
400.74	1.57
401.105	1.68
401.47	1.58
401.834	1.56
402.199	1.45
402.563	1.57
402.927	1.55
403.292	1.78
403.656	1.69
404.02	1.56
404.384	1.83
404.749	1.63
405.113	1.64
405.477	1.61
405.841	1.56
406.205	1.53
406.569	1.43
406.933	1.55
407.296	1.67
407.66	1.65
408.024	1.64
408.388	1.61
408.752	1.52
409.115	1.88
409.479	1.6
409.842	1.69
410.206	1.58
410.569	1.58
410.933	1.56
411.296	1.45
411.66	1.61
412.023	1.44
412.386	1.56
412.749	1.44
413.113	1.63
413.476	1.46
413.839	1.52
414.202	1.59
414.565	1.41
414.928	1.34
415.291	1.42
415.654	1.56
416.017	1.67
416.38	1.45
416.742	1.44
417.105	1.36
417.468	1.48
417.83	1.51
418.193	1.59
418.556	1.44
418.918	1.42
419.281	1.5
419.643	1.47
420.005	1.53
420.368	1.65
420.73	1.5
421.092	1.58
421.455	1.75
421.817	1.45
422.179	1.39
422.541	1.6
422.903	1.68
423.265	1.61
423.627	1.61
423.989	1.5
424.351	1.54
424.713	1.58
425.075	1.39
425.436	1.48
425.798	1.46
426.16	1.58
426.521	1.46
426.883	1.57
427.245	1.61
427.606	1.49
427.967	1.34
428.329	1.49
428.69	1.75
429.052	1.51
429.413	1.62
429.774	1.61
430.135	1.61
430.497	1.55
430.858	1.48
431.219	1.51
431.58	1.54
431.941	1.53
432.302	1.5
432.663	1.51
433.024	1.53
433.384	1.53
433.745	1.4
434.106	1.57
434.467	1.54
434.827	1.49
435.188	1.64
435.548	1.56
435.909	1.43
436.269	1.54
436.63	1.43
436.99	1.48
437.351	1.46
437.711	1.47
438.071	1.42
438.431	1.47
438.792	1.54
439.152	1.42
439.512	1.48
439.872	1.51
440.232	1.49
440.592	1.44
440.952	1.5
441.312	1.41
441.671	1.43
442.031	1.47
442.391	1.42
442.751	1.53
443.11	1.47
443.47	1.37
443.83	1.37
444.189	1.38
444.549	1.42
444.908	1.36
445.267	1.46
445.627	1.39
445.986	1.38
446.345	1.32
446.705	1.43
447.064	1.39
447.423	1.33
447.782	1.38
448.141	1.36
448.5	1.3
448.859	1.28
449.218	1.35
449.577	1.35
449.936	1.32
450.295	1.29
450.653	1.27
451.012	1.31
451.371	1.27
451.729	1.27
452.088	1.27
452.447	1.27
452.805	1.28
453.163	1.26
453.522	1.23
453.88	1.23
454.239	1.26
454.597	1.18
454.955	1.18
455.313	1.19
455.671	1.18
456.029	1.15
456.388	1.13
456.746	1.13
457.104	1.13
457.461	1.1
457.819	1.08
458.177	1.07
458.535	1.07
458.893	1.06
459.25	1.02
459.608	1.04
459.966	1.01
460.323	0.99
460.681	0.97
461.038	0.95
461.396	0.95
461.753	0.95
462.111	0.93
462.468	0.92
462.825	0.9
463.182	0.89
463.54	0.88
463.897	0.88
464.254	0.86
464.611	0.85
464.968	0.85
465.325	0.83
465.682	0.8
466.039	0.8
466.395	0.78
466.752	0.77
467.109	0.76
467.466	0.75
467.822	0.75
468.179	0.72
468.535	0.72
468.892	0.7
469.248	0.68
469.605	0.67
469.961	0.66
470.318	0.67
470.674	0.65
471.03	0.64
471.386	0.62
471.743	0.62
472.099	0.61
472.455	0.59
472.811	0.58
473.167	0.58
473.523	0.55
473.879	0.55
474.235	0.54
474.59	0.53
474.946	0.52
475.302	0.51
475.657	0.5
476.013	0.5
476.369	0.48
476.724	0.48
477.08	0.48
477.435	0.46
477.791	0.46
478.146	0.45
478.501	0.44
478.857	0.44
479.212	0.43
479.567	0.42
479.922	0.4
480.277	0.39
480.632	0.39
480.987	0.4
481.342	0.36
481.697	0.36
482.052	0.36
482.407	0.35
482.762	0.34
483.116	0.33
483.471	0.33
483.826	0.32
484.18	0.32
484.535	0.31
484.89	0.3
485.244	0.29
485.598	0.29
485.953	0.28
486.307	0.28
486.661	0.28
487.016	0.27
487.37	0.26
487.724	0.26
488.078	0.25
488.432	0.25
488.786	0.25
489.14	0.24
489.494	0.23
489.848	0.23
490.202	0.22
490.556	0.22
490.91	0.21
491.263	0.21
491.617	0.21
491.971	0.21
492.324	0.2
492.678	0.21
493.031	0.19
493.385	0.19
493.738	0.18
494.091	0.18
494.445	0.18
494.798	0.18
495.151	0.17
495.504	0.17
495.857	0.17
496.21	0.17
496.564	0.16
496.916	0.16
497.269	0.16
497.622	0.16
497.975	0.15
498.328	0.16
498.681	0.15
499.033	0.15
499.386	0.15
499.739	0.14
500.091	0.13
500.444	0.14
500.796	0.14
501.149	0.13
501.501	0.13
501.854	0.13
502.206	0.13
502.558	0.12
502.91	0.13
503.263	0.12
503.615	0.12
503.967	0.12
504.319	0.12
504.671	0.11
505.023	0.1
505.375	0.11
505.726	0.11
506.078	0.11
506.43	0.1
506.782	0.1
507.133	0.09
507.485	0.1
507.837	0.11
508.188	0.1
508.54	0.1
508.891	0.11
509.243	0.09
509.594	0.1
509.945	0.1
510.296	0.09
510.648	0.1
510.999	0.09
511.35	0.09
511.701	0.09
512.052	0.09
512.403	0.09
512.754	0.08
513.105	0.09
513.456	0.08
513.807	0.08
514.157	0.08
514.508	0.08
514.859	0.07
515.209	0.08
515.56	0.08
515.91	0.08
516.261	0.07
516.611	0.07
516.962	0.08
517.312	0.07
517.662	0.07
518.013	0.07
518.363	0.08
518.713	0.07
519.063	0.07
519.413	0.07
519.763	0.07
520.113	0.07
520.463	0.08
520.813	0.08
521.163	0.07
521.512	0.08
521.862	0.07
522.212	0.07
522.562	0.07
522.911	0.07
523.261	0.07
523.61	0.07
523.96	0.07
524.309	0.07
524.658	0.07
525.008	0.07
525.357	0.06
525.706	0.07
526.056	0.07
526.405	0.07
526.754	0.07
527.103	0.06
527.452	0.07
527.801	0.07
528.15	0.07
528.499	0.06
528.847	0.07
529.196	0.07
529.545	0.07
529.893	0.08
530.242	0.08
530.591	0.08
530.939	0.08
531.288	0.07
531.636	0.07
531.985	0.08
532.333	0.07
532.681	0.07
533.029	0.07
533.378	0.07
533.726	0.07
534.074	0.08
534.422	0.07
534.77	0.07
535.118	0.06
535.466	0.06
535.814	0.06
536.162	0.07
536.509	0.07
536.857	0.06
537.205	0.08
537.552	0.07
537.9	0.07
538.248	0.06
538.595	0.07
538.943	0.07
539.29	0.07
539.637	0.06
539.985	0.06
540.332	0.06
540.679	0.06
541.026	0.05
541.373	0.06
541.721	0.06
542.068	0.06
542.415	0.06
542.762	0.05
543.108	0.05
543.455	0.05
543.802	0.05
544.149	0.05
544.496	0.06
544.842	0.06
545.189	0.05
545.535	0.05
545.882	0.06
546.228	0.05
546.575	0.05
546.921	0.05
547.267	0.05
547.614	0.06
547.96	0.06
548.306	0.05
548.652	0.05
548.998	0.06
549.344	0.05
549.69	0.05
550.036	0.06
550.382	0.06
550.728	0.06
551.074	0.06
551.42	0.06
551.765	0.06
552.111	0.07
552.457	0.07
552.802	0.05
553.148	0.06
553.493	0.06
553.839	0.06
554.184	0.06
554.529	0.06
554.875	0.06
555.22	0.06
555.565	0.06
555.91	0.06
556.255	0.07
556.6	0.07
556.945	0.06
557.29	0.06
557.635	0.07
557.98	0.06
558.325	0.06
558.67	0.06
559.014	0.05
559.359	0.07
559.704	0.06
560.048	0.05
560.393	0.05
560.737	0.05
561.082	0.05
561.426	0.05
561.77	0.05
562.115	0.05
562.459	0.05
562.803	0.05
563.147	0.05
563.491	0.05
563.835	0.05
564.179	0.06
564.523	0.05
564.867	0.05
565.211	0.05
565.555	0.06
565.899	0.06
566.242	0.05
566.586	0.05
566.93	0.06
567.273	0.06
567.617	0.06
567.96	0.06
568.304	0.06
568.647	0.05
568.99	0.06
569.334	0.07
569.677	0.06
570.02	0.06
570.363	0.06
570.706	0.06
571.049	0.06
571.392	0.06
571.735	0.06
572.078	0.06
572.421	0.07
572.764	0.06
573.106	0.06
573.449	0.05
573.792	0.05
574.134	0.06
574.477	0.06
574.819	0.06
575.162	0.05
575.504	0.06
575.847	0.06
576.189	0.06
576.531	0.06
576.873	0.06
577.215	0.05
577.558	0.06
577.9	0.05
578.242	0.06
578.584	0.05
578.926	0.05
579.267	0.05
579.609	0.05
579.951	0.05
580.293	0.05
580.634	0.06
580.976	0.05
581.318	0.05
581.659	0.04
582.001	0.06
582.342	0.05
582.683	0.05
583.025	0.05
583.366	0.05
583.707	0.05
584.049	0.05
584.39	0.05
584.731	0.05
585.072	0.04
585.413	0.06
585.754	0.06
586.095	0.06
586.435	0.06
586.776	0.06
587.117	0.06
587.458	0.06
587.798	0.06
588.139	0.05
588.48	0.05
588.82	0.05
589.161	0.05
589.501	0.05
589.841	0.05
590.182	0.05
590.522	0.05
590.862	0.05
591.202	0.05
591.542	0.04
591.882	0.05
592.222	0.05
592.562	0.05
592.902	0.05
593.242	0.04
593.582	0.06
593.922	0.05
594.261	0.05
594.601	0.05
594.941	0.05
595.28	0.06
595.62	0.06
595.959	0.05
596.299	0.05
596.638	0.05
596.977	0.05
597.317	0.05
597.656	0.05
597.995	0.04
598.334	0.05
598.673	0.05
599.012	0.05
599.351	0.05
599.69	0.05
600.029	0.05
600.368	0.05
600.707	0.05
601.046	0.05
601.384	0.05
601.723	0.05
602.061	0.04
602.4	0.05
602.738	0.05
603.077	0.05
603.415	0.04
603.754	0.05
604.092	0.05
604.43	0.05
604.768	0.05
605.107	0.05
605.445	0.05
605.783	0.04
606.121	0.04
606.459	0.05
606.796	0.06
607.134	0.04
607.472	0.04
607.81	0.06
608.148	0.05
608.485	0.05
608.823	0.06
609.16	0.04
609.498	0.05
609.835	0.05
610.173	0.05
610.51	0.05
610.847	0.05
611.185	0.06
611.522	0.05
611.859	0.06
612.196	0.05
612.533	0.06
612.87	0.06
613.207	0.06
613.544	0.06
613.881	0.07
614.217	0.06
614.554	0.06
614.891	0.06
615.228	0.06
615.564	0.06
615.901	0.07
616.237	0.07
616.574	0.06
616.91	0.07
617.246	0.07
617.583	0.07
617.919	0.07
618.255	0.07
618.591	0.07
618.927	0.06
619.263	0.07
619.599	0.07
619.935	0.07
620.271	0.07
620.607	0.07
620.943	0.06
621.279	0.07
621.614	0.06
621.95	0.07
622.286	0.06
622.621	0.05
622.957	0.06
623.292	0.05
623.627	0.05
623.963	0.06
624.298	0.06
624.633	0.05
624.968	0.05
625.304	0.06
625.639	0.05
625.974	0.05
626.309	0.05
626.644	0.05
626.979	0.06
627.313	0.05
627.648	0.05
627.983	0.06
628.318	0.05
628.652	0.05
628.987	0.05
629.321	0.06
629.656	0.05
629.99	0.05
630.325	0.05
630.659	0.06
630.993	0.05
631.327	0.05
631.662	0.04
631.996	0.05
632.33	0.05
632.664	0.05
632.998	0.05
633.332	0.04
633.666	0.05
633.999	0.05
634.333	0.04
634.667	0.05
635.001	0.04
635.334	0.04
635.668	0.04
636.001	0.04
636.335	0.04
636.668	0.05
637.001	0.04
637.335	0.04
637.668	0.04
638.001	0.04
638.334	0.04
638.668	0.04
639.001	0.05
639.334	0.04
639.667	0.04
639.999	0.04
640.332	0.05
640.665	0.05
640.998	0.04
641.331	0.05
641.663	0.04
641.996	0.04
642.328	0.05
642.661	0.04
642.993	0.05
643.326	0.05
643.658	0.05
643.99	0.04
644.323	0.04
644.655	0.05
644.987	0.05
645.319	0.06
645.651	0.05
645.983	0.05
646.315	0.05
646.647	0.05
646.979	0.06
647.31	0.06
647.642	0.05
647.974	0.05
648.305	0.06
648.637	0.05
648.968	0.06
649.3	0.06
649.631	0.06
649.963	0.05
650.294	0.06
650.625	0.05
650.957	0.06
651.288	0.06
651.619	0.06
651.95	0.05
652.281	0.06
652.612	0.05
652.943	0.06
653.274	0.06
653.604	0.05
653.935	0.05
654.266	0.05
654.596	0.05
654.927	0.05
655.258	0.05
655.588	0.06
655.918	0.05
656.249	0.04
656.579	0.05
656.909	0.05
657.24	0.05
657.57	0.06
657.9	0.05
658.23	0.05
658.56	0.06
658.89	0.06
659.22	0.05
659.55	0.06
659.88	0.06
660.209	0.06
660.539	0.07
660.869	0.06
661.198	0.06
661.528	0.05
661.857	0.06
662.187	0.06
662.516	0.05
662.846	0.05
663.175	0.05
663.504	0.05
663.833	0.05
664.163	0.06
664.492	0.05
664.821	0.05
665.15	0.05
665.479	0.05
665.807	0.05
666.136	0.05
666.465	0.05
666.794	0.05
667.122	0.06
667.451	0.05
667.78	0.05
668.108	0.05
668.437	0.05
668.765	0.05
669.093	0.06
669.422	0.05
669.75	0.05
670.078	0.05
670.406	0.06
670.734	0.06
671.062	0.05
671.39	0.05
671.718	0.06
672.046	0.05
672.374	0.05
672.702	0.05
673.029	0.05
673.357	0.06
673.685	0.06
674.012	0.05
674.34	0.05
674.667	0.05
674.995	0.05
675.322	0.05
675.649	0.04
675.977	0.05
676.304	0.06
676.631	0.05
676.958	0.04
677.285	0.05
677.612	0.04
677.939	0.04
678.266	0.05
678.593	0.05
678.92	0.04
679.246	0.04
679.573	0.05
679.9	0.04
680.226	0.04
680.553	0.04
680.879	0.04
681.206	0.04
681.532	0.04
681.858	0.04
682.184	0.04
682.511	0.04
682.837	0.04
683.163	0.05
683.489	0.04
683.815	0.04
684.141	0.05
684.467	0.04
684.793	0.04
685.118	0.04
685.444	0.05
685.77	0.04
686.095	0.04
686.421	0.05
686.746	0.05
687.072	0.05
687.397	0.04
687.723	0.05
688.048	0.05
688.373	0.05
688.698	0.05
689.023	0.04
689.349	0.04
689.674	0.04
689.999	0.04
690.323	0.04
690.648	0.03
690.973	0.04
691.298	0.03
691.623	0.03
691.947	0.03
692.272	0.03
692.596	0.03
692.921	0.04
693.245	0.04
693.57	0.03
693.894	0.04
694.218	0.04
694.543	0.04
694.867	0.03
695.191	0.04
695.515	0.04
695.839	0.03
696.163	0.03
696.487	0.03
696.811	0.03
697.135	0.04
697.458	0.04
697.782	0.04
698.106	0.04
698.429	0.04
698.753	0.04
699.076	0.04
699.4	0.04
699.723	0.04
700.046	0.03
700.37	0.04
700.693	0.04
701.016	0.04
701.339	0.04
701.662	0.04
701.985	0.04
702.308	0.04
702.631	0.05
702.954	0.05
703.277	0.05
703.599	0.05
703.922	0.04
704.245	0.04
704.567	0.03
704.89	0.04
705.212	0.05
705.535	0.04
705.857	0.04
706.179	0.03
706.502	0.03
706.824	0.03
707.146	0.03
707.468	0.03
707.79	0.04
708.112	0.04
708.434	0.04
708.756	0.03
709.078	0.04
709.399	0.03
709.721	0.03
710.043	0.04
710.364	0.04
710.686	0.03
711.007	0.04
711.329	0.04
711.65	0.04
711.972	0.04
712.293	0.04
712.614	0.04
712.935	0.04
713.256	0.04
713.577	0.04
713.898	0.04
714.219	0.03
714.54	0.03
714.861	0.04
715.182	0.03
715.503	0.03
715.823	0.04
716.144	0.03
716.464	0.03
716.785	0.03
717.105	0.03
717.426	0.04
717.746	0.03
718.066	0.03
718.387	0.03
718.707	0.03
719.027	0.03
719.347	0.03
719.667	0.03
719.987	0.03
720.307	0.02
720.627	0.03
720.947	0.02
721.266	0.03
721.586	0.02
721.906	0.02
722.225	0.02
722.545	0.02
722.864	0.02
