Data from 12-12-AQDScycling_Absorbance__190__00190.txt Node

Date: Tue Dec 12 11:44:14 EST 2023
User: kyuminlee
Spectrometer: FLMS00943
Trigger mode: 0
Integration Time (sec): 1.000000E-1
Scans to average: 1
Electric dark correction enabled: true
Nonlinearity correction enabled: false
Boxcar width: 0
XAxis mode: Wavelengths
Number of Pixels in Spectrum: 2048
>>>>>Begin Spectral Data<<<<<
179.651	-0
180.037	-0
180.424	-0
180.81	-0.45
181.197	0.72
181.583	-0
181.97	-0.13
182.356	-0
182.743	-0.69
183.129	1.1
183.515	0.89
183.901	-0
184.288	0.28
184.674	-0
185.06	-0
185.446	0.18
185.832	-0
186.218	0.36
186.604	0.18
186.99	-0.33
187.376	-0.22
187.762	-0.42
188.148	0.27
188.534	0.05
188.92	0.17
189.305	0.04
189.691	0.16
190.077	0.23
190.463	0.07
190.848	0.07
191.234	0.08
191.619	0.11
192.005	0.14
192.391	0.12
192.776	0.12
193.161	0.03
193.547	0.02
193.932	-0.02
194.318	0.05
194.703	0.13
195.088	0.25
195.473	0.21
195.859	0.23
196.244	0.23
196.629	0.17
197.014	0.04
197.399	0.15
197.784	0.23
198.169	0.04
198.554	0.2
198.939	0.15
199.324	0.27
199.709	0.05
200.094	0.12
200.478	0.08
200.863	0.25
201.248	0.09
201.633	0.23
202.017	0.06
202.402	0.24
202.787	0.25
203.171	0.24
203.556	0.18
203.94	0.15
204.325	0.24
204.709	0.26
205.093	0.06
205.478	0.14
205.862	0.22
206.246	0.26
206.631	0.11
207.015	0.1
207.399	0.21
207.783	0.1
208.167	0.1
208.551	0.22
208.935	0.14
209.319	0.11
209.703	0.15
210.087	0.42
210.471	0.04
210.855	0.21
211.239	0.29
211.623	0.23
212.007	0.22
212.39	0.29
212.774	0.23
213.158	0.28
213.541	0.22
213.925	0.3
214.309	0.33
214.692	0.41
215.076	0.31
215.459	0.25
215.842	0.22
216.226	0.18
216.609	0.24
216.993	0.1
217.376	0.35
217.759	0.34
218.142	0.29
218.525	0.44
218.909	0.45
219.292	0.36
219.675	0.56
220.058	0.52
220.441	0.43
220.824	0.54
221.207	0.47
221.59	0.48
221.973	0.51
222.355	0.59
222.738	0.65
223.121	0.51
223.504	0.6
223.886	0.6
224.269	0.82
224.652	0.62
225.034	0.86
225.417	0.82
225.799	0.8
226.182	0.79
226.564	0.87
226.947	0.73
227.329	0.8
227.711	0.98
228.094	0.86
228.476	0.94
228.858	0.78
229.24	0.91
229.623	0.99
230.005	0.8
230.387	0.76
230.769	0.93
231.151	0.9
231.533	1.02
231.915	0.83
232.297	0.92
232.679	1.09
233.061	0.97
233.442	1.09
233.824	1.15
234.206	1.15
234.588	1.12
234.969	1.06
235.351	1.03
235.733	0.97
236.114	1.16
236.496	1.11
236.877	0.98
237.259	1.12
237.64	1.19
238.022	1.04
238.403	1.07
238.784	1.06
239.165	1.03
239.547	1.04
239.928	1.12
240.309	1.17
240.69	1.04
241.071	1.02
241.452	1.22
241.834	1.01
242.215	1.24
242.595	1.06
242.976	1.07
243.357	1.15
243.738	1.05
244.119	1.78
244.5	1.14
244.881	1.23
245.261	1.09
245.642	1.25
246.023	1.2
246.403	1.19
246.784	1.22
247.164	1.34
247.545	1.41
247.925	1.31
248.306	1.25
248.686	1.37
249.067	1.36
249.447	1.37
249.827	1.6
250.207	1.41
250.588	1.28
250.968	1.49
251.348	1.32
251.728	1.34
252.108	1.27
252.488	1.33
252.868	1.33
253.248	1.34
253.628	1.4
254.008	1.42
254.388	1.31
254.768	1.34
255.147	1.31
255.527	1.47
255.907	1.4
256.287	1.4
256.666	1.49
257.046	1.46
257.425	1.6
257.805	1.31
258.184	1.33
258.564	1.36
258.943	1.34
259.323	1.55
259.702	1.43
260.081	1.59
260.461	1.56
260.84	1.41
261.219	1.73
261.598	1.42
261.977	1.4
262.356	1.56
262.736	1.54
263.115	1.61
263.494	1.42
263.873	1.46
264.251	1.58
264.63	1.57
265.009	1.48
265.388	1.47
265.767	1.37
266.145	1.44
266.524	1.48
266.903	1.42
267.281	1.43
267.66	1.55
268.039	1.35
268.417	1.36
268.796	1.39
269.174	1.45
269.552	1.33
269.931	1.47
270.309	1.42
270.687	1.82
271.066	1.6
271.444	1.36
271.822	1.49
272.2	1.36
272.578	1.39
272.956	1.36
273.334	1.29
273.712	1.54
274.09	1.41
274.468	1.43
274.846	1.35
275.224	1.37
275.602	1.49
275.98	1.48
276.357	1.5
276.735	1.4
277.113	1.37
277.49	1.25
277.868	1.42
278.246	1.41
278.623	1.34
279.001	1.3
279.378	1.41
279.756	1.38
280.133	1.56
280.51	1.38
280.888	1.56
281.265	1.36
281.642	1.45
282.019	1.53
282.396	1.59
282.773	1.46
283.151	1.61
283.528	1.47
283.905	1.55
284.282	1.57
284.659	1.53
285.035	1.27
285.412	1.4
285.789	1.55
286.166	1.66
286.543	1.52
286.919	1.49
287.296	1.43
287.673	1.6
288.049	1.56
288.426	1.42
288.802	1.56
289.179	1.49
289.555	1.89
289.932	1.41
290.308	1.28
290.684	1.3
291.061	1.33
291.437	1.48
291.813	1.42
292.189	1.27
292.565	1.35
292.942	1.3
293.318	1.4
293.694	1.43
294.07	1.36
294.446	1.41
294.822	1.53
295.197	1.47
295.573	1.56
295.949	1.33
296.325	1.47
296.701	1.7
297.076	1.58
297.452	1.59
297.828	1.5
298.203	1.66
298.579	1.47
298.954	1.52
299.33	1.38
299.705	1.43
300.081	1.44
300.456	1.5
300.831	1.44
301.206	1.42
301.582	1.59
301.957	1.43
302.332	1.6
302.707	1.35
303.082	1.43
303.457	1.55
303.832	1.49
304.207	1.32
304.582	1.32
304.957	1.47
305.332	1.47
305.707	1.44
306.082	1.61
306.456	1.49
306.831	1.45
307.206	1.4
307.58	1.43
307.955	1.47
308.33	1.44
308.704	1.59
309.079	1.46
309.453	1.62
309.828	1.48
310.202	1.34
310.576	1.4
310.951	1.44
311.325	1.41
311.699	1.45
312.073	1.37
312.447	1.46
312.821	1.46
313.196	1.44
313.57	1.37
313.944	1.42
314.317	1.42
314.691	1.45
315.065	1.48
315.439	1.43
315.813	1.45
316.187	1.52
316.56	1.54
316.934	1.36
317.308	1.39
317.681	1.43
318.055	1.51
318.428	1.6
318.802	1.48
319.175	1.38
319.549	1.55
319.922	1.36
320.295	1.37
320.669	1.68
321.042	1.38
321.415	1.6
321.788	1.4
322.162	1.51
322.535	1.55
322.908	1.54
323.281	1.41
323.654	1.69
324.027	1.39
324.4	1.58
324.773	1.58
325.145	1.41
325.518	1.52
325.891	1.36
326.264	1.6
326.636	1.34
327.009	1.56
327.382	1.57
327.754	1.46
328.127	1.38
328.499	1.46
328.872	1.55
329.244	1.61
329.616	1.4
329.989	1.57
330.361	1.5
330.733	1.47
331.106	1.45
331.478	1.5
331.85	1.53
332.222	1.39
332.594	1.46
332.966	1.48
333.338	1.69
333.71	1.47
334.082	1.61
334.454	1.54
334.826	1.5
335.197	1.49
335.569	1.36
335.941	1.33
336.312	1.56
336.684	1.33
337.056	1.36
337.427	1.56
337.799	1.51
338.17	1.54
338.542	1.44
338.913	1.51
339.284	1.53
339.656	1.45
340.027	1.5
340.398	1.47
340.769	1.48
341.141	1.54
341.512	1.52
341.883	1.63
342.254	1.49
342.625	1.49
342.996	1.47
343.367	1.49
343.738	1.46
344.108	1.4
344.479	1.62
344.85	1.45
345.221	1.6
345.591	1.28
345.962	1.39
346.333	1.38
346.703	1.36
347.074	1.39
347.444	1.3
347.815	1.26
348.185	1.21
348.556	1.31
348.926	1.31
349.296	1.43
349.666	1.35
350.037	1.28
350.407	1.27
350.777	1.36
351.147	1.34
351.517	1.39
351.887	1.38
352.257	1.43
352.627	1.28
352.997	1.31
353.367	1.38
353.737	1.33
354.106	1.34
354.476	1.42
354.846	1.43
355.216	1.4
355.585	1.43
355.955	1.37
356.324	1.43
356.694	1.36
357.063	1.29
357.433	1.32
357.802	1.37
358.171	1.35
358.541	1.36
358.91	1.33
359.279	1.33
359.648	1.34
360.017	1.39
360.387	1.33
360.756	1.28
361.125	1.3
361.494	1.34
361.863	1.29
362.231	1.24
362.6	1.31
362.969	1.26
363.338	1.2
363.707	1.36
364.075	1.39
364.444	1.24
364.813	1.24
365.181	1.27
365.55	1.27
365.918	1.31
366.287	1.32
366.655	1.39
367.024	1.28
367.392	1.36
367.76	1.3
368.128	1.3
368.497	1.26
368.865	1.23
369.233	1.21
369.601	1.27
369.969	1.25
370.337	1.27
370.705	1.25
371.073	1.31
371.441	1.28
371.809	1.27
372.177	1.26
372.544	1.33
372.912	1.25
373.28	1.25
373.647	1.28
374.015	1.28
374.383	1.49
374.75	1.39
375.118	1.31
375.485	1.33
375.853	1.37
376.22	1.28
376.587	1.35
376.955	1.35
377.322	1.48
377.689	1.31
378.056	1.31
378.423	1.29
378.79	1.32
379.157	1.35
379.524	1.34
379.891	1.35
380.258	1.36
380.625	1.28
380.992	1.38
381.359	1.36
381.726	1.43
382.092	1.39
382.459	1.36
382.826	1.36
383.192	1.35
383.559	1.35
383.925	1.36
384.292	1.33
384.658	1.5
385.025	1.44
385.391	1.52
385.757	1.41
386.123	1.41
386.49	1.43
386.856	1.45
387.222	1.44
387.588	1.43
387.954	1.54
388.32	1.49
388.686	1.48
389.052	1.46
389.418	1.51
389.784	1.38
390.15	1.44
390.515	1.36
390.881	1.44
391.247	1.4
391.613	1.44
391.978	1.37
392.344	1.53
392.709	1.59
393.075	1.52
393.44	1.51
393.806	1.44
394.171	1.39
394.536	1.52
394.902	1.48
395.267	1.46
395.632	1.41
395.997	1.39
396.362	1.39
396.727	1.39
397.092	1.49
397.457	1.45
397.822	1.43
398.187	1.44
398.552	1.4
398.917	1.41
399.282	1.26
399.646	1.42
400.011	1.44
400.376	1.33
400.74	1.35
401.105	1.34
401.47	1.43
401.834	1.47
402.199	1.38
402.563	1.42
402.927	1.33
403.292	1.38
403.656	1.4
404.02	1.35
404.384	1.49
404.749	1.26
405.113	1.35
405.477	1.32
405.841	1.27
406.205	1.33
406.569	1.27
406.933	1.28
407.296	1.37
407.66	1.29
408.024	1.27
408.388	1.27
408.752	1.34
409.115	1.28
409.479	1.22
409.842	1.23
410.206	1.21
410.569	1.19
410.933	1.27
411.296	1.19
411.66	1.24
412.023	1.14
412.386	1.18
412.749	1.15
413.113	1.19
413.476	1.12
413.839	1.12
414.202	1.16
414.565	1.07
414.928	1.16
415.291	1.13
415.654	1.1
416.017	1.26
416.38	1.1
416.742	1.14
417.105	1.11
417.468	1.06
417.83	1.13
418.193	1.11
418.556	1.11
418.918	1.1
419.281	1.11
419.643	1.15
420.005	1.07
420.368	1.1
420.73	1.09
421.092	1.1
421.455	1.1
421.817	1.05
422.179	1.07
422.541	1.07
422.903	1.1
423.265	1.12
423.627	1.08
423.989	1.06
424.351	1.05
424.713	1.08
425.075	1.04
425.436	1.01
425.798	1.07
426.16	1.11
426.521	1.07
426.883	1.07
427.245	1.03
427.606	1.01
427.967	1.03
428.329	1.03
428.69	1.02
429.052	1.03
429.413	1.03
429.774	1.04
430.135	1.01
430.497	1.04
430.858	1
431.219	1.03
431.58	1.01
431.941	1.03
432.302	1.02
432.663	1.01
433.024	1.03
433.384	1.01
433.745	0.98
434.106	1
434.467	1
434.827	1.02
435.188	1.01
435.548	1.02
435.909	1
436.269	0.98
436.63	0.97
436.99	0.97
437.351	0.95
437.711	0.96
438.071	0.93
438.431	0.92
438.792	0.93
439.152	0.92
439.512	0.94
439.872	0.87
440.232	0.94
440.592	0.9
440.952	0.92
441.312	0.9
441.671	0.9
442.031	0.9
442.391	0.9
442.751	0.89
443.11	0.89
443.47	0.87
443.83	0.85
444.189	0.83
444.549	0.87
444.908	0.85
445.267	0.86
445.627	0.84
445.986	0.84
446.345	0.83
446.705	0.84
447.064	0.81
447.423	0.82
447.782	0.79
448.141	0.81
448.5	0.8
448.859	0.81
449.218	0.8
449.577	0.81
449.936	0.8
450.295	0.79
450.653	0.77
451.012	0.79
451.371	0.75
451.729	0.77
452.088	0.77
452.447	0.76
452.805	0.75
453.163	0.75
453.522	0.76
453.88	0.73
454.239	0.75
454.597	0.73
454.955	0.71
455.313	0.7
455.671	0.71
456.029	0.69
456.388	0.7
456.746	0.68
457.104	0.68
457.461	0.66
457.819	0.68
458.177	0.66
458.535	0.65
458.893	0.65
459.25	0.64
459.608	0.63
459.966	0.62
460.323	0.61
460.681	0.59
461.038	0.6
461.396	0.58
461.753	0.58
462.111	0.58
462.468	0.56
462.825	0.56
463.182	0.56
463.54	0.56
463.897	0.55
464.254	0.55
464.611	0.54
464.968	0.52
465.325	0.53
465.682	0.51
466.039	0.51
466.395	0.51
466.752	0.5
467.109	0.48
467.466	0.5
467.822	0.49
468.179	0.47
468.535	0.48
468.892	0.47
469.248	0.45
469.605	0.45
469.961	0.45
470.318	0.46
470.674	0.45
471.03	0.45
471.386	0.43
471.743	0.43
472.099	0.42
472.455	0.42
472.811	0.41
473.167	0.41
473.523	0.4
473.879	0.39
474.235	0.38
474.59	0.38
474.946	0.38
475.302	0.37
475.657	0.36
476.013	0.36
476.369	0.35
476.724	0.35
477.08	0.36
477.435	0.34
477.791	0.33
478.146	0.33
478.501	0.33
478.857	0.33
479.212	0.33
479.567	0.33
479.922	0.31
480.277	0.31
480.632	0.31
480.987	0.3
481.342	0.3
481.697	0.29
482.052	0.29
482.407	0.29
482.762	0.28
483.116	0.28
483.471	0.28
483.826	0.27
484.18	0.26
484.535	0.26
484.89	0.25
485.244	0.26
485.598	0.27
485.953	0.25
486.307	0.25
486.661	0.25
487.016	0.25
487.37	0.25
487.724	0.24
488.078	0.24
488.432	0.24
488.786	0.24
489.14	0.24
489.494	0.22
489.848	0.23
490.202	0.23
490.556	0.22
490.91	0.22
491.263	0.22
491.617	0.22
491.971	0.22
492.324	0.21
492.678	0.21
493.031	0.21
493.385	0.21
493.738	0.21
494.091	0.21
494.445	0.2
494.798	0.2
495.151	0.2
495.504	0.2
495.857	0.2
496.21	0.2
496.564	0.19
496.916	0.2
497.269	0.19
497.622	0.2
497.975	0.2
498.328	0.19
498.681	0.2
499.033	0.19
499.386	0.19
499.739	0.19
500.091	0.19
500.444	0.18
500.796	0.18
501.149	0.18
501.501	0.18
501.854	0.18
502.206	0.18
502.558	0.18
502.91	0.18
503.263	0.18
503.615	0.18
503.967	0.17
504.319	0.18
504.671	0.18
505.023	0.17
505.375	0.17
505.726	0.16
506.078	0.17
506.43	0.17
506.782	0.17
507.133	0.16
507.485	0.17
507.837	0.17
508.188	0.17
508.54	0.17
508.891	0.17
509.243	0.16
509.594	0.17
509.945	0.17
510.296	0.17
510.648	0.17
510.999	0.16
511.35	0.16
511.701	0.17
512.052	0.17
512.403	0.17
512.754	0.16
513.105	0.16
513.456	0.16
513.807	0.16
514.157	0.17
514.508	0.16
514.859	0.16
515.209	0.15
515.56	0.16
515.91	0.15
516.261	0.16
516.611	0.15
516.962	0.15
517.312	0.15
517.662	0.15
518.013	0.16
518.363	0.16
518.713	0.16
519.063	0.15
519.413	0.16
519.763	0.16
520.113	0.15
520.463	0.16
520.813	0.16
521.163	0.16
521.512	0.16
521.862	0.16
522.212	0.16
522.562	0.16
522.911	0.16
523.261	0.16
523.61	0.16
523.96	0.16
524.309	0.17
524.658	0.16
525.008	0.16
525.357	0.16
525.706	0.16
526.056	0.16
526.405	0.16
526.754	0.16
527.103	0.15
527.452	0.16
527.801	0.17
528.15	0.16
528.499	0.16
528.847	0.16
529.196	0.16
529.545	0.16
529.893	0.17
530.242	0.16
530.591	0.17
530.939	0.18
531.288	0.17
531.636	0.17
531.985	0.17
532.333	0.18
532.681	0.17
533.029	0.17
533.378	0.17
533.726	0.17
534.074	0.18
534.422	0.17
534.77	0.16
535.118	0.17
535.466	0.16
535.814	0.17
536.162	0.17
536.509	0.17
536.857	0.17
537.205	0.17
537.552	0.17
537.9	0.17
538.248	0.17
538.595	0.17
538.943	0.17
539.29	0.17
539.637	0.17
539.985	0.16
540.332	0.16
540.679	0.17
541.026	0.16
541.373	0.17
541.721	0.15
542.068	0.16
542.415	0.16
542.762	0.16
543.108	0.16
543.455	0.16
543.802	0.16
544.149	0.16
544.496	0.16
544.842	0.16
545.189	0.16
545.535	0.17
545.882	0.16
546.228	0.16
546.575	0.15
546.921	0.16
547.267	0.15
547.614	0.16
547.96	0.16
548.306	0.16
548.652	0.16
548.998	0.17
549.344	0.16
549.69	0.17
550.036	0.16
550.382	0.16
550.728	0.16
551.074	0.18
551.42	0.17
551.765	0.17
552.111	0.18
552.457	0.17
552.802	0.17
553.148	0.17
553.493	0.17
553.839	0.17
554.184	0.17
554.529	0.16
554.875	0.18
555.22	0.17
555.565	0.18
555.91	0.17
556.255	0.19
556.6	0.17
556.945	0.17
557.29	0.17
557.635	0.17
557.98	0.17
558.325	0.17
558.67	0.16
559.014	0.18
559.359	0.17
559.704	0.18
560.048	0.17
560.393	0.17
560.737	0.15
561.082	0.17
561.426	0.16
561.77	0.17
562.115	0.16
562.459	0.17
562.803	0.16
563.147	0.16
563.491	0.16
563.835	0.17
564.179	0.16
564.523	0.16
564.867	0.16
565.211	0.17
565.555	0.17
565.899	0.17
566.242	0.16
566.586	0.16
566.93	0.17
567.273	0.17
567.617	0.17
567.96	0.17
568.304	0.17
568.647	0.16
568.99	0.17
569.334	0.18
569.677	0.17
570.02	0.18
570.363	0.17
570.706	0.17
571.049	0.17
571.392	0.17
571.735	0.16
572.078	0.17
572.421	0.18
572.764	0.17
573.106	0.17
573.449	0.17
573.792	0.16
574.134	0.17
574.477	0.17
574.819	0.17
575.162	0.17
575.504	0.17
575.847	0.17
576.189	0.17
576.531	0.17
576.873	0.17
577.215	0.17
577.558	0.17
577.9	0.16
578.242	0.17
578.584	0.17
578.926	0.17
579.267	0.17
579.609	0.17
579.951	0.17
580.293	0.17
580.634	0.17
580.976	0.17
581.318	0.16
581.659	0.16
582.001	0.17
582.342	0.16
582.683	0.17
583.025	0.16
583.366	0.16
583.707	0.17
584.049	0.16
584.39	0.17
584.731	0.16
585.072	0.16
585.413	0.17
585.754	0.17
586.095	0.17
586.435	0.17
586.776	0.17
587.117	0.17
587.458	0.17
587.798	0.17
588.139	0.18
588.48	0.16
588.82	0.16
589.161	0.16
589.501	0.17
589.841	0.16
590.182	0.16
590.522	0.16
590.862	0.17
591.202	0.17
591.542	0.16
591.882	0.16
592.222	0.17
592.562	0.16
592.902	0.16
593.242	0.16
593.582	0.17
593.922	0.17
594.261	0.17
594.601	0.16
594.941	0.16
595.28	0.17
595.62	0.16
595.959	0.17
596.299	0.16
596.638	0.16
596.977	0.17
597.317	0.17
597.656	0.17
597.995	0.16
598.334	0.17
598.673	0.16
599.012	0.16
599.351	0.17
599.69	0.15
600.029	0.16
600.368	0.16
600.707	0.16
601.046	0.16
601.384	0.17
601.723	0.16
602.061	0.16
602.4	0.16
602.738	0.17
603.077	0.16
603.415	0.16
603.754	0.17
604.092	0.16
604.43	0.16
604.768	0.16
605.107	0.16
605.445	0.16
605.783	0.16
606.121	0.16
606.459	0.16
606.796	0.16
607.134	0.16
607.472	0.16
607.81	0.16
608.148	0.16
608.485	0.16
608.823	0.16
609.16	0.16
609.498	0.16
609.835	0.16
610.173	0.16
610.51	0.16
610.847	0.16
611.185	0.16
611.522	0.17
611.859	0.16
612.196	0.16
612.533	0.17
612.87	0.17
613.207	0.17
613.544	0.17
613.881	0.17
614.217	0.17
614.554	0.17
614.891	0.16
615.228	0.17
615.564	0.17
615.901	0.17
616.237	0.17
616.574	0.17
616.91	0.17
617.246	0.17
617.583	0.17
617.919	0.18
618.255	0.17
618.591	0.17
618.927	0.17
619.263	0.18
619.599	0.17
619.935	0.17
620.271	0.18
620.607	0.18
620.943	0.17
621.279	0.17
621.614	0.17
621.95	0.17
622.286	0.17
622.621	0.16
622.957	0.16
623.292	0.16
623.627	0.15
623.963	0.16
624.298	0.16
624.633	0.16
624.968	0.16
625.304	0.15
625.639	0.16
625.974	0.15
626.309	0.15
626.644	0.15
626.979	0.16
627.313	0.15
627.648	0.15
627.983	0.15
628.318	0.15
628.652	0.15
628.987	0.16
629.321	0.16
629.656	0.16
629.99	0.15
630.325	0.16
630.659	0.15
630.993	0.15
631.327	0.15
631.662	0.15
631.996	0.15
632.33	0.15
632.664	0.15
632.998	0.14
633.332	0.14
633.666	0.15
633.999	0.14
634.333	0.14
634.667	0.14
635.001	0.14
635.334	0.14
635.668	0.14
636.001	0.14
636.335	0.14
636.668	0.14
637.001	0.13
637.335	0.14
637.668	0.14
638.001	0.14
638.334	0.14
638.668	0.14
639.001	0.14
639.334	0.14
639.667	0.13
639.999	0.13
640.332	0.14
640.665	0.14
640.998	0.14
641.331	0.14
641.663	0.13
641.996	0.13
642.328	0.14
642.661	0.14
642.993	0.13
643.326	0.14
643.658	0.13
643.99	0.13
644.323	0.13
644.655	0.14
644.987	0.14
645.319	0.14
645.651	0.14
645.983	0.14
646.315	0.13
646.647	0.14
646.979	0.15
647.31	0.14
647.642	0.14
647.974	0.15
648.305	0.15
648.637	0.15
648.968	0.15
649.3	0.15
649.631	0.14
649.963	0.13
650.294	0.15
650.625	0.14
650.957	0.15
651.288	0.14
651.619	0.14
651.95	0.14
652.281	0.15
652.612	0.14
652.943	0.14
653.274	0.14
653.604	0.14
653.935	0.14
654.266	0.14
654.596	0.13
654.927	0.14
655.258	0.14
655.588	0.14
655.918	0.15
656.249	0.12
656.579	0.13
656.909	0.14
657.24	0.13
657.57	0.14
657.9	0.15
658.23	0.14
658.56	0.14
658.89	0.14
659.22	0.14
659.55	0.14
659.88	0.15
660.209	0.14
660.539	0.15
660.869	0.15
661.198	0.14
661.528	0.14
661.857	0.14
662.187	0.14
662.516	0.14
662.846	0.14
663.175	0.14
663.504	0.14
663.833	0.14
664.163	0.13
664.492	0.13
664.821	0.14
665.15	0.13
665.479	0.14
665.807	0.13
666.136	0.13
666.465	0.13
666.794	0.13
667.122	0.13
667.451	0.13
667.78	0.13
668.108	0.13
668.437	0.13
668.765	0.12
669.093	0.13
669.422	0.13
669.75	0.13
670.078	0.13
670.406	0.13
670.734	0.14
671.062	0.13
671.39	0.13
671.718	0.13
672.046	0.13
672.374	0.13
672.702	0.13
673.029	0.12
673.357	0.13
673.685	0.13
674.012	0.13
674.34	0.12
674.667	0.12
674.995	0.13
675.322	0.13
675.649	0.12
675.977	0.12
676.304	0.12
676.631	0.12
676.958	0.12
677.285	0.12
677.612	0.11
677.939	0.12
678.266	0.12
678.593	0.12
678.92	0.12
679.246	0.11
679.573	0.12
679.9	0.11
680.226	0.12
680.553	0.11
680.879	0.11
681.206	0.11
681.532	0.1
681.858	0.11
682.184	0.11
682.511	0.11
682.837	0.1
683.163	0.11
683.489	0.12
683.815	0.11
684.141	0.12
684.467	0.11
684.793	0.11
685.118	0.11
685.444	0.11
685.77	0.11
686.095	0.12
686.421	0.11
686.746	0.12
687.072	0.11
687.397	0.11
687.723	0.12
688.048	0.12
688.373	0.11
688.698	0.12
689.023	0.12
689.349	0.11
689.674	0.12
689.999	0.1
690.323	0.1
690.648	0.1
690.973	0.1
691.298	0.1
691.623	0.1
691.947	0.1
692.272	0.1
692.596	0.1
692.921	0.11
693.245	0.1
693.57	0.1
693.894	0.1
694.218	0.1
694.543	0.1
694.867	0.09
695.191	0.09
695.515	0.09
695.839	0.1
696.163	0.09
696.487	0.1
696.811	0.1
697.135	0.1
697.458	0.1
697.782	0.09
698.106	0.1
698.429	0.1
698.753	0.1
699.076	0.1
699.4	0.1
699.723	0.1
700.046	0.09
700.37	0.1
700.693	0.1
701.016	0.09
701.339	0.1
701.662	0.1
701.985	0.11
702.308	0.09
702.631	0.1
702.954	0.1
703.277	0.1
703.599	0.1
703.922	0.09
704.245	0.1
704.567	0.09
704.89	0.1
705.212	0.1
705.535	0.1
705.857	0.09
706.179	0.09
706.502	0.09
706.824	0.09
707.146	0.08
707.468	0.09
707.79	0.09
708.112	0.09
708.434	0.09
708.756	0.09
709.078	0.09
709.399	0.09
709.721	0.09
710.043	0.09
710.364	0.09
710.686	0.1
711.007	0.09
711.329	0.09
711.65	0.09
711.972	0.09
712.293	0.09
712.614	0.09
712.935	0.09
713.256	0.09
713.577	0.1
713.898	0.09
714.219	0.09
714.54	0.08
714.861	0.09
715.182	0.09
715.503	0.08
715.823	0.08
716.144	0.08
716.464	0.08
716.785	0.08
717.105	0.08
717.426	0.09
717.746	0.09
718.066	0.08
718.387	0.07
718.707	0.08
719.027	0.08
719.347	0.08
719.667	0.07
719.987	0.07
720.307	0.07
720.627	0.07
720.947	0.07
721.266	0.07
721.586	0.06
721.906	0.07
722.225	0.06
722.545	0.06
722.864	0.06
723.184	0.07
723.503	0.06
723.823	0.07
724.142	0.07
