Data from 12-12-AQDScycling_Absorbance__37__00037.txt Node

Date: Tue Dec 12 11:05:59 EST 2023
User: kyuminlee
Spectrometer: FLMS00943
Trigger mode: 0
Integration Time (sec): 1.000000E-1
Scans to average: 1
Electric dark correction enabled: true
Nonlinearity correction enabled: false
Boxcar width: 0
XAxis mode: Wavelengths
Number of Pixels in Spectrum: 2048
>>>>>Begin Spectral Data<<<<<
179.651	0.29
180.037	0.29
180.424	0.29
180.81	-0
181.197	0.15
181.583	-0
181.97	-0
182.356	-0
182.743	-1.18
183.129	-0.1
183.515	0.27
183.901	-2.56
184.288	0.64
184.674	-0
185.06	-0.91
185.446	1.57
185.832	-0.88
186.218	-0
186.604	-0
186.99	-0
187.376	-0.33
187.762	0.14
188.148	0.46
188.534	-0
188.92	0.26
189.305	0.13
189.691	0.35
190.077	0.19
190.463	0.16
190.848	0.04
191.234	0.04
191.619	0.1
192.005	0.11
192.391	0.2
192.776	0.14
193.161	0.2
193.547	0.29
193.932	0.12
194.318	0.07
194.703	0.15
195.088	0.1
195.473	0.18
195.859	0.19
196.244	0.21
196.629	0.12
197.014	0.14
197.399	0.25
197.784	0.23
198.169	0.03
198.554	0.16
198.939	0.14
199.324	0.2
199.709	-0.02
200.094	0.05
200.478	0.17
200.863	0.23
201.248	0.12
201.633	0.18
202.017	0.19
202.402	0.05
202.787	0.12
203.171	0.16
203.556	0.22
203.94	0.14
204.325	0.33
204.709	0.15
205.093	0.07
205.478	0.17
205.862	0.06
206.246	0.09
206.631	0.22
207.015	0.14
207.399	0.21
207.783	0.14
208.167	0.28
208.551	0.17
208.935	0.13
209.319	0.11
209.703	0.06
210.087	0.26
210.471	0.26
210.855	0.05
211.239	0.27
211.623	0.3
212.007	0.36
212.39	0.35
212.774	0.15
213.158	0.13
213.541	0.16
213.925	0.24
214.309	0.25
214.692	0.32
215.076	0.18
215.459	0.19
215.842	0.17
216.226	0.3
216.609	0.25
216.993	0.23
217.376	0.49
217.759	0.21
218.142	0.42
218.525	0.49
218.909	0.23
219.292	0.39
219.675	0.5
220.058	0.42
220.441	0.55
220.824	0.45
221.207	0.78
221.59	0.55
221.973	0.53
222.355	0.54
222.738	0.69
223.121	0.58
223.504	0.65
223.886	0.69
224.269	0.69
224.652	0.72
225.034	0.99
225.417	0.76
225.799	0.83
226.182	0.88
226.564	0.84
226.947	0.75
227.329	0.76
227.711	0.91
228.094	0.98
228.476	0.83
228.858	0.88
229.24	0.81
229.623	1.01
230.005	0.99
230.387	0.82
230.769	0.74
231.151	0.96
231.533	0.87
231.915	0.91
232.297	1.01
232.679	1.04
233.061	1.22
233.442	1.01
233.824	0.87
234.206	1
234.588	1.04
234.969	1.02
235.351	1
235.733	1.01
236.114	1.19
236.496	1.08
236.877	1.14
237.259	1.16
237.64	1.04
238.022	0.98
238.403	0.98
238.784	1
239.165	1
239.547	1.13
239.928	1.17
240.309	1.2
240.69	1.13
241.071	1.24
241.452	1.08
241.834	1.04
242.215	1.11
242.595	1.02
242.976	1.15
243.357	1.16
243.738	1.27
244.119	1.29
244.5	1.1
244.881	1.1
245.261	1.26
245.642	1.06
246.023	1.23
246.403	1.18
246.784	1.18
247.164	1.2
247.545	1.26
247.925	1.33
248.306	1.21
248.686	1.42
249.067	1.2
249.447	1.52
249.827	1.68
250.207	1.52
250.588	1.26
250.968	1.41
251.348	1.37
251.728	1.39
252.108	1.49
252.488	1.39
252.868	1.28
253.248	1.33
253.628	1.42
254.008	1.41
254.388	1.27
254.768	1.38
255.147	1.46
255.527	1.49
255.907	1.36
256.287	1.34
256.666	1.44
257.046	1.58
257.425	1.38
257.805	1.33
258.184	1.32
258.564	1.35
258.943	1.56
259.323	1.4
259.702	1.52
260.081	1.5
260.461	1.46
260.84	1.5
261.219	1.64
261.598	1.56
261.977	1.49
262.356	1.49
262.736	1.45
263.115	1.42
263.494	1.37
263.873	1.42
264.251	1.5
264.63	1.49
265.009	1.4
265.388	1.53
265.767	1.3
266.145	1.43
266.524	1.6
266.903	1.46
267.281	1.46
267.66	1.55
268.039	1.56
268.417	1.45
268.796	1.45
269.174	1.46
269.552	1.24
269.931	1.4
270.309	1.38
270.687	1.61
271.066	2.04
271.444	1.46
271.822	1.56
272.2	1.29
272.578	1.41
272.956	1.44
273.334	1.36
273.712	1.29
274.09	1.43
274.468	1.48
274.846	1.35
275.224	1.37
275.602	1.37
275.98	1.61
276.357	1.37
276.735	1.33
277.113	1.29
277.49	1.46
277.868	1.26
278.246	1.4
278.623	1.26
279.001	1.32
279.378	1.5
279.756	1.35
280.133	1.6
280.51	1.43
280.888	1.48
281.265	1.38
281.642	1.53
282.019	1.47
282.396	1.52
282.773	1.35
283.151	1.54
283.528	1.38
283.905	1.38
284.282	1.59
284.659	1.59
285.035	1.3
285.412	1.25
285.789	1.61
286.166	1.42
286.543	1.37
286.919	1.58
287.296	1.46
287.673	1.7
288.049	1.41
288.426	1.62
288.802	1.49
289.179	1.37
289.555	1.71
289.932	1.44
290.308	1.3
290.684	1.32
291.061	1.43
291.437	1.55
291.813	1.42
292.189	1.3
292.565	1.49
292.942	1.31
293.318	1.44
293.694	1.49
294.07	1.35
294.446	1.59
294.822	1.48
295.197	1.48
295.573	1.48
295.949	1.49
296.325	1.53
296.701	1.53
297.076	1.64
297.452	1.56
297.828	1.5
298.203	1.56
298.579	1.42
298.954	1.4
299.33	1.45
299.705	1.45
300.081	1.58
300.456	1.58
300.831	1.37
301.206	1.55
301.582	1.8
301.957	1.5
302.332	1.66
302.707	1.5
303.082	1.44
303.457	1.52
303.832	1.53
304.207	1.47
304.582	1.48
304.957	1.38
305.332	1.63
305.707	1.64
306.082	1.65
306.456	1.5
306.831	1.6
307.206	1.44
307.58	1.52
307.955	1.52
308.33	1.38
308.704	1.51
309.079	1.53
309.453	1.63
309.828	1.44
310.202	1.36
310.576	1.43
310.951	1.57
311.325	1.54
311.699	1.48
312.073	1.36
312.447	1.35
312.821	1.4
313.196	1.54
313.57	1.45
313.944	1.5
314.317	1.3
314.691	1.5
315.065	1.58
315.439	1.52
315.813	1.51
316.187	1.46
316.56	1.79
316.934	1.76
317.308	1.45
317.681	1.45
318.055	1.45
318.428	1.49
318.802	1.49
319.175	1.48
319.549	1.39
319.922	1.43
320.295	1.4
320.669	1.64
321.042	1.57
321.415	1.86
321.788	1.39
322.162	1.45
322.535	1.67
322.908	1.6
323.281	1.47
323.654	1.6
324.027	1.42
324.4	1.5
324.773	1.6
325.145	1.62
325.518	1.44
325.891	1.46
326.264	1.57
326.636	1.48
327.009	1.57
327.382	1.47
327.754	1.53
328.127	1.48
328.499	1.58
328.872	1.53
329.244	1.48
329.616	1.46
329.989	1.49
330.361	1.42
330.733	1.53
331.106	1.5
331.478	1.58
331.85	1.51
332.222	1.43
332.594	1.55
332.966	1.46
333.338	1.54
333.71	1.61
334.082	1.64
334.454	1.48
334.826	1.58
335.197	1.55
335.569	1.46
335.941	1.42
336.312	1.56
336.684	1.45
337.056	1.51
337.427	1.64
337.799	1.58
338.17	1.56
338.542	1.44
338.913	1.54
339.284	1.63
339.656	1.55
340.027	1.57
340.398	1.56
340.769	1.51
341.141	1.8
341.512	1.5
341.883	1.53
342.254	1.53
342.625	1.55
342.996	1.53
343.367	1.53
343.738	1.57
344.108	1.44
344.479	1.63
344.85	1.34
345.221	1.66
345.591	1.5
345.962	1.47
346.333	1.51
346.703	1.39
347.074	1.32
347.444	1.33
347.815	1.54
348.185	1.55
348.556	1.3
348.926	1.32
349.296	1.39
349.666	1.44
350.037	1.33
350.407	1.29
350.777	1.42
351.147	1.45
351.517	1.28
351.887	1.31
352.257	1.32
352.627	1.25
352.997	1.32
353.367	1.42
353.737	1.37
354.106	1.34
354.476	1.3
354.846	1.32
355.216	1.35
355.585	1.3
355.955	1.36
356.324	1.34
356.694	1.34
357.063	1.32
357.433	1.29
357.802	1.28
358.171	1.4
358.541	1.27
358.91	1.3
359.279	1.3
359.648	1.19
360.017	1.26
360.387	1.23
360.756	1.16
361.125	1.19
361.494	1.25
361.863	1.18
362.231	1.16
362.6	1.17
362.969	1.17
363.338	1.18
363.707	1.21
364.075	1.2
364.444	1.07
364.813	1.14
365.181	1.09
365.55	1.12
365.918	1.12
366.287	1.13
366.655	1.18
367.024	1.17
367.392	1.11
367.76	1.11
368.128	1.1
368.497	1.07
368.865	1.09
369.233	1.08
369.601	1.09
369.969	1.11
370.337	1.09
370.705	1.13
371.073	1.07
371.441	1.09
371.809	1.07
372.177	1.09
372.544	1.05
372.912	1.08
373.28	1.06
373.647	1.11
374.015	1.06
374.383	1.18
374.75	1.15
375.118	1.09
375.485	1.06
375.853	1.06
376.22	1.09
376.587	1.05
376.955	1.12
377.322	1.05
377.689	1.09
378.056	1.05
378.423	1.05
378.79	1.1
379.157	1.1
379.524	1.05
379.891	1.04
380.258	1.11
380.625	1.09
380.992	1.09
381.359	1.06
381.726	1.16
382.092	1.12
382.459	1.09
382.826	1.09
383.192	1.09
383.559	1.13
383.925	1.09
384.292	1.11
384.658	1.21
385.025	1.23
385.391	1.2
385.757	1.18
386.123	1.17
386.49	1.26
386.856	1.21
387.222	1.22
387.588	1.17
387.954	1.26
388.32	1.25
388.686	1.23
389.052	1.2
389.418	1.27
389.784	1.19
390.15	1.22
390.515	1.18
390.881	1.27
391.247	1.18
391.613	1.2
391.978	1.16
392.344	1.24
392.709	1.27
393.075	1.22
393.44	1.27
393.806	1.09
394.171	1.16
394.536	1.23
394.902	1.25
395.267	1.21
395.632	1.23
395.997	1.2
396.362	1.18
396.727	1.15
397.092	1.21
397.457	1.15
397.822	1.11
398.187	1.16
398.552	1.15
398.917	1.16
399.282	1.1
399.646	1.17
400.011	1.17
400.376	1.08
400.74	1.08
401.105	1.15
401.47	1.09
401.834	1.1
402.199	1.06
402.563	1.01
402.927	1.02
403.292	1.13
403.656	1.09
404.02	1.12
404.384	1.09
404.749	1.04
405.113	1.02
405.477	1.05
405.841	1.06
406.205	1
406.569	1.04
406.933	1.03
407.296	0.97
407.66	1.02
408.024	1
408.388	0.99
408.752	0.97
409.115	0.97
409.479	0.96
409.842	0.95
410.206	0.9
410.569	0.92
410.933	0.96
411.296	0.9
411.66	0.95
412.023	0.87
412.386	0.89
412.749	0.87
413.113	0.89
413.476	0.87
413.839	0.89
414.202	0.88
414.565	0.86
414.928	0.87
415.291	0.84
415.654	0.83
416.017	0.82
416.38	0.82
416.742	0.8
417.105	0.82
417.468	0.84
417.83	0.84
418.193	0.85
418.556	0.81
418.918	0.79
419.281	0.83
419.643	0.82
420.005	0.82
420.368	0.84
420.73	0.78
421.092	0.8
421.455	0.83
421.817	0.8
422.179	0.78
422.541	0.81
422.903	0.82
423.265	0.81
423.627	0.79
423.989	0.79
424.351	0.8
424.713	0.77
425.075	0.76
425.436	0.79
425.798	0.75
426.16	0.78
426.521	0.79
426.883	0.79
427.245	0.75
427.606	0.74
427.967	0.73
428.329	0.76
428.69	0.78
429.052	0.76
429.413	0.75
429.774	0.77
430.135	0.73
430.497	0.74
430.858	0.72
431.219	0.75
431.58	0.72
431.941	0.73
432.302	0.73
432.663	0.72
433.024	0.73
433.384	0.74
433.745	0.7
434.106	0.73
434.467	0.72
434.827	0.75
435.188	0.73
435.548	0.73
435.909	0.72
436.269	0.73
436.63	0.69
436.99	0.73
437.351	0.69
437.711	0.72
438.071	0.69
438.431	0.68
438.792	0.7
439.152	0.68
439.512	0.66
439.872	0.68
440.232	0.7
440.592	0.67
440.952	0.66
441.312	0.65
441.671	0.65
442.031	0.66
442.391	0.67
442.751	0.66
443.11	0.63
443.47	0.62
443.83	0.63
444.189	0.61
444.549	0.63
444.908	0.62
445.267	0.62
445.627	0.62
445.986	0.6
446.345	0.61
446.705	0.6
447.064	0.6
447.423	0.59
447.782	0.59
448.141	0.59
448.5	0.58
448.859	0.59
449.218	0.59
449.577	0.58
449.936	0.59
450.295	0.57
450.653	0.57
451.012	0.57
451.371	0.58
451.729	0.56
452.088	0.57
452.447	0.56
452.805	0.56
453.163	0.56
453.522	0.56
453.88	0.53
454.239	0.54
454.597	0.54
454.955	0.53
455.313	0.52
455.671	0.52
456.029	0.52
456.388	0.51
456.746	0.51
457.104	0.5
457.461	0.5
457.819	0.5
458.177	0.49
458.535	0.48
458.893	0.47
459.25	0.47
459.608	0.47
459.966	0.46
460.323	0.46
460.681	0.45
461.038	0.45
461.396	0.44
461.753	0.44
462.111	0.43
462.468	0.43
462.825	0.43
463.182	0.43
463.54	0.41
463.897	0.42
464.254	0.41
464.611	0.41
464.968	0.4
465.325	0.4
465.682	0.39
466.039	0.39
466.395	0.38
466.752	0.38
467.109	0.37
467.466	0.37
467.822	0.37
468.179	0.37
468.535	0.37
468.892	0.35
469.248	0.35
469.605	0.35
469.961	0.35
470.318	0.35
470.674	0.35
471.03	0.33
471.386	0.33
471.743	0.33
472.099	0.32
472.455	0.32
472.811	0.31
473.167	0.31
473.523	0.3
473.879	0.3
474.235	0.3
474.59	0.3
474.946	0.3
475.302	0.29
475.657	0.29
476.013	0.28
476.369	0.28
476.724	0.28
477.08	0.28
477.435	0.27
477.791	0.28
478.146	0.27
478.501	0.27
478.857	0.27
479.212	0.26
479.567	0.26
479.922	0.25
480.277	0.24
480.632	0.24
480.987	0.25
481.342	0.24
481.697	0.23
482.052	0.23
482.407	0.23
482.762	0.23
483.116	0.22
483.471	0.21
483.826	0.21
484.18	0.22
484.535	0.21
484.89	0.21
485.244	0.21
485.598	0.21
485.953	0.21
486.307	0.2
486.661	0.21
487.016	0.2
487.37	0.21
487.724	0.19
488.078	0.19
488.432	0.19
488.786	0.19
489.14	0.19
489.494	0.18
489.848	0.19
490.202	0.18
490.556	0.18
490.91	0.18
491.263	0.18
491.617	0.18
491.971	0.18
492.324	0.17
492.678	0.18
493.031	0.17
493.385	0.17
493.738	0.17
494.091	0.17
494.445	0.17
494.798	0.17
495.151	0.17
495.504	0.17
495.857	0.17
496.21	0.17
496.564	0.16
496.916	0.17
497.269	0.16
497.622	0.17
497.975	0.16
498.328	0.16
498.681	0.16
499.033	0.15
499.386	0.16
499.739	0.16
500.091	0.15
500.444	0.16
500.796	0.16
501.149	0.16
501.501	0.15
501.854	0.15
502.206	0.15
502.558	0.16
502.91	0.15
503.263	0.15
503.615	0.15
503.967	0.14
504.319	0.15
504.671	0.15
505.023	0.14
505.375	0.14
505.726	0.14
506.078	0.14
506.43	0.14
506.782	0.13
507.133	0.14
507.485	0.14
507.837	0.15
508.188	0.14
508.54	0.14
508.891	0.15
509.243	0.13
509.594	0.14
509.945	0.13
510.296	0.13
510.648	0.14
510.999	0.13
511.35	0.14
511.701	0.14
512.052	0.14
512.403	0.13
512.754	0.13
513.105	0.13
513.456	0.13
513.807	0.12
514.157	0.13
514.508	0.12
514.859	0.12
515.209	0.12
515.56	0.13
515.91	0.13
516.261	0.13
516.611	0.12
516.962	0.13
517.312	0.13
517.662	0.13
518.013	0.13
518.363	0.13
518.713	0.13
519.063	0.13
519.413	0.13
519.763	0.13
520.113	0.12
520.463	0.13
520.813	0.14
521.163	0.14
521.512	0.13
521.862	0.13
522.212	0.14
522.562	0.13
522.911	0.13
523.261	0.13
523.61	0.12
523.96	0.13
524.309	0.14
524.658	0.13
525.008	0.13
525.357	0.14
525.706	0.14
526.056	0.13
526.405	0.13
526.754	0.13
527.103	0.13
527.452	0.13
527.801	0.14
528.15	0.13
528.499	0.13
528.847	0.13
529.196	0.14
529.545	0.13
529.893	0.14
530.242	0.13
530.591	0.14
530.939	0.14
531.288	0.13
531.636	0.14
531.985	0.13
532.333	0.14
532.681	0.13
533.029	0.14
533.378	0.13
533.726	0.13
534.074	0.14
534.422	0.13
534.77	0.14
535.118	0.13
535.466	0.13
535.814	0.13
536.162	0.14
536.509	0.14
536.857	0.13
537.205	0.14
537.552	0.14
537.9	0.14
538.248	0.13
538.595	0.14
538.943	0.13
539.29	0.13
539.637	0.13
539.985	0.13
540.332	0.12
540.679	0.13
541.026	0.13
541.373	0.14
541.721	0.12
542.068	0.13
542.415	0.14
542.762	0.13
543.108	0.12
543.455	0.13
543.802	0.13
544.149	0.13
544.496	0.13
544.842	0.13
545.189	0.12
545.535	0.13
545.882	0.13
546.228	0.12
546.575	0.13
546.921	0.13
547.267	0.13
547.614	0.13
547.96	0.13
548.306	0.13
548.652	0.13
548.998	0.13
549.344	0.12
549.69	0.13
550.036	0.13
550.382	0.13
550.728	0.13
551.074	0.13
551.42	0.13
551.765	0.14
552.111	0.14
552.457	0.14
552.802	0.13
553.148	0.14
553.493	0.13
553.839	0.13
554.184	0.14
554.529	0.13
554.875	0.14
555.22	0.14
555.565	0.14
555.91	0.13
556.255	0.15
556.6	0.15
556.945	0.14
557.29	0.13
557.635	0.14
557.98	0.13
558.325	0.13
558.67	0.13
559.014	0.14
559.359	0.13
559.704	0.13
560.048	0.12
560.393	0.13
560.737	0.12
561.082	0.13
561.426	0.12
561.77	0.13
562.115	0.12
562.459	0.13
562.803	0.13
563.147	0.13
563.491	0.13
563.835	0.13
564.179	0.13
564.523	0.13
564.867	0.13
565.211	0.13
565.555	0.13
565.899	0.13
566.242	0.13
566.586	0.13
566.93	0.13
567.273	0.13
567.617	0.14
567.96	0.13
568.304	0.13
568.647	0.13
568.99	0.14
569.334	0.14
569.677	0.13
570.02	0.14
570.363	0.15
570.706	0.13
571.049	0.14
571.392	0.15
571.735	0.14
572.078	0.14
572.421	0.15
572.764	0.14
573.106	0.14
573.449	0.14
573.792	0.14
574.134	0.13
574.477	0.14
574.819	0.13
575.162	0.14
575.504	0.14
575.847	0.13
576.189	0.14
576.531	0.14
576.873	0.13
577.215	0.14
577.558	0.14
577.9	0.13
578.242	0.13
578.584	0.14
578.926	0.13
579.267	0.13
579.609	0.13
579.951	0.13
580.293	0.13
580.634	0.14
580.976	0.13
581.318	0.13
581.659	0.14
582.001	0.14
582.342	0.13
582.683	0.14
583.025	0.13
583.366	0.13
583.707	0.13
584.049	0.14
584.39	0.13
584.731	0.13
585.072	0.13
585.413	0.13
585.754	0.13
586.095	0.13
586.435	0.13
586.776	0.13
587.117	0.13
587.458	0.13
587.798	0.13
588.139	0.13
588.48	0.13
588.82	0.13
589.161	0.13
589.501	0.13
589.841	0.12
590.182	0.12
590.522	0.12
590.862	0.12
591.202	0.12
591.542	0.12
591.882	0.12
592.222	0.12
592.562	0.13
592.902	0.13
593.242	0.12
593.582	0.13
593.922	0.13
594.261	0.13
594.601	0.13
594.941	0.13
595.28	0.13
595.62	0.14
595.959	0.12
596.299	0.12
596.638	0.12
596.977	0.13
597.317	0.13
597.656	0.13
597.995	0.13
598.334	0.14
598.673	0.13
599.012	0.13
599.351	0.13
599.69	0.13
600.029	0.13
600.368	0.13
600.707	0.13
601.046	0.13
601.384	0.13
601.723	0.13
602.061	0.12
602.4	0.13
602.738	0.13
603.077	0.13
603.415	0.13
603.754	0.13
604.092	0.13
604.43	0.12
604.768	0.13
605.107	0.13
605.445	0.13
605.783	0.13
606.121	0.13
606.459	0.13
606.796	0.13
607.134	0.13
607.472	0.13
607.81	0.13
608.148	0.13
608.485	0.14
608.823	0.14
609.16	0.13
609.498	0.13
609.835	0.13
610.173	0.13
610.51	0.13
610.847	0.13
611.185	0.14
611.522	0.14
611.859	0.14
612.196	0.14
612.533	0.14
612.87	0.14
613.207	0.14
613.544	0.14
613.881	0.14
614.217	0.14
614.554	0.14
614.891	0.13
615.228	0.13
615.564	0.14
615.901	0.14
616.237	0.14
616.574	0.13
616.91	0.14
617.246	0.14
617.583	0.14
617.919	0.14
618.255	0.15
618.591	0.14
618.927	0.14
619.263	0.14
619.599	0.14
619.935	0.14
620.271	0.14
620.607	0.13
620.943	0.13
621.279	0.13
621.614	0.13
621.95	0.14
622.286	0.13
622.621	0.13
622.957	0.14
623.292	0.13
623.627	0.14
623.963	0.13
624.298	0.14
624.633	0.13
624.968	0.13
625.304	0.13
625.639	0.13
625.974	0.12
626.309	0.12
626.644	0.13
626.979	0.14
627.313	0.13
627.648	0.13
627.983	0.13
628.318	0.12
628.652	0.13
628.987	0.13
629.321	0.13
629.656	0.12
629.99	0.12
630.325	0.12
630.659	0.13
630.993	0.12
631.327	0.13
631.662	0.12
631.996	0.12
632.33	0.12
632.664	0.12
632.998	0.12
633.332	0.11
633.666	0.11
633.999	0.12
634.333	0.11
634.667	0.11
635.001	0.11
635.334	0.11
635.668	0.12
636.001	0.11
636.335	0.11
636.668	0.11
637.001	0.11
637.335	0.11
637.668	0.11
638.001	0.11
638.334	0.11
638.668	0.12
639.001	0.11
639.334	0.12
639.667	0.11
639.999	0.11
640.332	0.11
640.665	0.11
640.998	0.12
641.331	0.12
641.663	0.11
641.996	0.12
642.328	0.12
642.661	0.11
642.993	0.11
643.326	0.12
643.658	0.12
643.99	0.11
644.323	0.11
644.655	0.12
644.987	0.11
645.319	0.12
645.651	0.12
645.983	0.12
646.315	0.12
646.647	0.12
646.979	0.12
647.31	0.12
647.642	0.12
647.974	0.12
648.305	0.13
648.637	0.12
648.968	0.12
649.3	0.12
649.631	0.13
649.963	0.11
650.294	0.12
650.625	0.11
650.957	0.12
651.288	0.12
651.619	0.12
651.95	0.12
652.281	0.12
652.612	0.11
652.943	0.12
653.274	0.12
653.604	0.11
653.935	0.11
654.266	0.12
654.596	0.11
654.927	0.11
655.258	0.12
655.588	0.12
655.918	0.12
656.249	0.1
656.579	0.12
656.909	0.11
657.24	0.11
657.57	0.12
657.9	0.12
658.23	0.12
658.56	0.12
658.89	0.13
659.22	0.11
659.55	0.12
659.88	0.12
660.209	0.12
660.539	0.13
660.869	0.12
661.198	0.12
661.528	0.12
661.857	0.11
662.187	0.12
662.516	0.11
662.846	0.11
663.175	0.11
663.504	0.11
663.833	0.11
664.163	0.11
664.492	0.11
664.821	0.12
665.15	0.11
665.479	0.11
665.807	0.11
666.136	0.11
666.465	0.11
666.794	0.11
667.122	0.11
667.451	0.11
667.78	0.11
668.108	0.11
668.437	0.11
668.765	0.11
669.093	0.11
669.422	0.11
669.75	0.11
670.078	0.11
670.406	0.11
670.734	0.11
671.062	0.1
671.39	0.1
671.718	0.11
672.046	0.11
672.374	0.11
672.702	0.1
673.029	0.1
673.357	0.11
673.685	0.11
674.012	0.11
674.34	0.1
674.667	0.11
674.995	0.11
675.322	0.11
675.649	0.1
675.977	0.1
676.304	0.1
676.631	0.1
676.958	0.1
677.285	0.09
677.612	0.09
677.939	0.1
678.266	0.09
678.593	0.09
678.92	0.1
679.246	0.09
679.573	0.09
679.9	0.09
680.226	0.09
680.553	0.09
680.879	0.09
681.206	0.09
681.532	0.08
681.858	0.09
682.184	0.09
682.511	0.09
682.837	0.09
683.163	0.08
683.489	0.1
683.815	0.09
684.141	0.09
684.467	0.1
684.793	0.09
685.118	0.1
685.444	0.09
685.77	0.09
686.095	0.09
686.421	0.09
686.746	0.09
687.072	0.09
687.397	0.09
687.723	0.09
688.048	0.09
688.373	0.09
688.698	0.09
689.023	0.09
689.349	0.09
689.674	0.09
689.999	0.09
690.323	0.08
690.648	0.08
690.973	0.08
691.298	0.08
691.623	0.08
691.947	0.08
692.272	0.08
692.596	0.09
692.921	0.08
693.245	0.08
693.57	0.08
693.894	0.08
694.218	0.08
694.543	0.08
694.867	0.08
695.191	0.07
695.515	0.08
695.839	0.07
696.163	0.07
696.487	0.07
696.811	0.07
697.135	0.08
697.458	0.09
697.782	0.09
698.106	0.08
698.429	0.08
698.753	0.08
699.076	0.08
699.4	0.08
699.723	0.08
700.046	0.08
700.37	0.08
700.693	0.09
701.016	0.08
701.339	0.08
701.662	0.09
701.985	0.09
702.308	0.08
702.631	0.08
702.954	0.08
703.277	0.08
703.599	0.08
703.922	0.08
704.245	0.07
704.567	0.07
704.89	0.08
705.212	0.08
705.535	0.07
705.857	0.06
706.179	0.06
706.502	0.06
706.824	0.06
707.146	0.06
707.468	0.07
707.79	0.06
708.112	0.06
708.434	0.07
708.756	0.07
709.078	0.06
709.399	0.07
709.721	0.06
710.043	0.06
710.364	0.07
710.686	0.06
711.007	0.07
711.329	0.07
711.65	0.07
711.972	0.07
712.293	0.07
712.614	0.07
712.935	0.07
713.256	0.07
713.577	0.07
713.898	0.07
714.219	0.07
714.54	0.06
714.861	0.06
715.182	0.07
715.503	0.07
715.823	0.07
716.144	0.07
716.464	0.06
716.785	0.06
717.105	0.07
717.426	0.07
717.746	0.06
718.066	0.06
718.387	0.06
718.707	0.06
719.027	0.07
719.347	0.05
719.667	0.06
719.987	0.05
720.307	0.06
720.627	0.05
720.947	0.06
721.266	0.05
721.586	0.05
721.906	0.05
722.225	0.05
722.545	0.06
722.864	0.06
723.184	0.05
723.503	0.06
