Data from 12-12-AQDScycling_Absorbance__785__00785.txt Node

Date: Tue Dec 12 14:12:59 EST 2023
User: kyuminlee
Spectrometer: FLMS00943
Trigger mode: 0
Integration Time (sec): 1.000000E-1
Scans to average: 1
Electric dark correction enabled: true
Nonlinearity correction enabled: false
Boxcar width: 0
XAxis mode: Wavelengths
Number of Pixels in Spectrum: 2048
>>>>>Begin Spectral Data<<<<<
179.651	-0
180.037	-0
180.424	-0
180.81	-0.36
181.197	0.24
181.583	-0
181.97	-0.59
182.356	-0.95
182.743	-1.13
183.129	0.11
183.515	1.81
183.901	-0
184.288	1.99
184.674	0.05
185.06	-0
185.446	-0
185.832	-0
186.218	-0.12
186.604	-0
186.99	-0
187.376	0.74
187.762	-0
188.148	0.35
188.534	-0.2
188.92	0.17
189.305	0.19
189.691	0.17
190.077	0.25
190.463	0.21
190.848	0.08
191.234	0.01
191.619	0.04
192.005	0.12
192.391	0.15
192.776	0.22
193.161	0.37
193.547	0.13
193.932	-0.01
194.318	0.13
194.703	0.31
195.088	0.24
195.473	0.24
195.859	0.16
196.244	0.21
196.629	0.19
197.014	0.23
197.399	0.2
197.784	0.16
198.169	0.17
198.554	0.36
198.939	0.23
199.324	0.13
199.709	0.08
200.094	0.11
200.478	0.3
200.863	0.16
201.248	0.14
201.633	0.1
202.017	0.19
202.402	0.11
202.787	0.23
203.171	0.16
203.556	0.21
203.94	0.12
204.325	0.24
204.709	0.25
205.093	0.1
205.478	0.13
205.862	0.16
206.246	0.22
206.631	0.11
207.015	0.09
207.399	0.44
207.783	0.24
208.167	0.23
208.551	0.27
208.935	0.15
209.319	0.12
209.703	0.14
210.087	0.27
210.471	0.1
210.855	0.26
211.239	0.17
211.623	0.31
212.007	0.17
212.39	0.26
212.774	0.18
213.158	0.2
213.541	0.29
213.925	0.21
214.309	0.44
214.692	0.32
215.076	0.07
215.459	0.13
215.842	0.13
216.226	0.26
216.609	0.29
216.993	0.24
217.376	0.43
217.759	0.15
218.142	0.28
218.525	0.59
218.909	0.38
219.292	0.36
219.675	0.47
220.058	0.64
220.441	0.45
220.824	0.51
221.207	0.46
221.59	0.52
221.973	0.49
222.355	0.75
222.738	0.73
223.121	0.56
223.504	0.55
223.886	0.82
224.269	0.74
224.652	0.69
225.034	0.78
225.417	0.8
225.799	0.92
226.182	0.98
226.564	0.84
226.947	0.74
227.329	0.81
227.711	0.9
228.094	0.79
228.476	0.95
228.858	0.96
229.24	0.8
229.623	0.95
230.005	0.82
230.387	1
230.769	0.85
231.151	1.13
231.533	1.07
231.915	0.98
232.297	1.05
232.679	1.05
233.061	1.03
233.442	1.17
233.824	1.1
234.206	1.26
234.588	1.06
234.969	1.14
235.351	1.02
235.733	1.26
236.114	1
236.496	1.12
236.877	1.25
237.259	1.01
237.64	1.27
238.022	1.05
238.403	0.92
238.784	1.06
239.165	0.98
239.547	1.06
239.928	1.12
240.309	1.07
240.69	1.2
241.071	1.11
241.452	1.18
241.834	1.03
242.215	1
242.595	1.16
242.976	1.2
243.357	1.09
243.738	1.07
244.119	1.22
244.5	1.19
244.881	1.28
245.261	1.42
245.642	1.12
246.023	1.27
246.403	1.24
246.784	1.27
247.164	1.41
247.545	1.22
247.925	1.44
248.306	1.22
248.686	1.47
249.067	1.37
249.447	1.39
249.827	1.62
250.207	1.32
250.588	1.36
250.968	1.48
251.348	1.36
251.728	1.83
252.108	1.42
252.488	1.49
252.868	1.39
253.248	1.32
253.628	1.35
254.008	1.52
254.388	1.21
254.768	1.38
255.147	1.49
255.527	1.35
255.907	1.39
256.287	1.34
256.666	1.38
257.046	1.36
257.425	1.6
257.805	1.39
258.184	1.39
258.564	1.39
258.943	1.34
259.323	1.6
259.702	1.51
260.081	1.44
260.461	1.41
260.84	1.57
261.219	1.73
261.598	1.58
261.977	1.48
262.356	1.61
262.736	1.43
263.115	1.65
263.494	1.42
263.873	1.4
264.251	1.48
264.63	1.54
265.009	1.48
265.388	1.52
265.767	1.35
266.145	1.37
266.524	1.39
266.903	1.45
267.281	1.49
267.66	1.4
268.039	1.68
268.417	1.58
268.796	1.41
269.174	1.48
269.552	1.39
269.931	1.62
270.309	1.42
270.687	1.43
271.066	1.69
271.444	1.53
271.822	1.5
272.2	1.46
272.578	1.51
272.956	1.45
273.334	1.45
273.712	1.52
274.09	1.46
274.468	1.27
274.846	1.28
275.224	1.41
275.602	1.51
275.98	1.49
276.357	1.44
276.735	1.62
277.113	1.45
277.49	1.51
277.868	1.36
278.246	1.48
278.623	1.36
279.001	1.35
279.378	1.43
279.756	1.48
280.133	1.49
280.51	1.43
280.888	1.54
281.265	1.43
281.642	1.48
282.019	1.52
282.396	1.59
282.773	1.58
283.151	1.54
283.528	1.45
283.905	1.5
284.282	1.52
284.659	1.56
285.035	1.31
285.412	1.41
285.789	1.55
286.166	1.37
286.543	1.58
286.919	1.47
287.296	1.54
287.673	1.7
288.049	1.42
288.426	1.56
288.802	1.44
289.179	1.53
289.555	1.6
289.932	1.48
290.308	1.32
290.684	1.32
291.061	1.43
291.437	1.74
291.813	1.51
292.189	1.36
292.565	1.57
292.942	1.36
293.318	1.54
293.694	1.37
294.07	1.38
294.446	1.46
294.822	1.7
295.197	1.36
295.573	1.52
295.949	1.42
296.325	1.57
296.701	1.62
297.076	1.58
297.452	1.55
297.828	1.47
298.203	1.43
298.579	1.37
298.954	1.41
299.33	1.45
299.705	1.52
300.081	1.43
300.456	1.49
300.831	1.3
301.206	1.32
301.582	1.46
301.957	1.35
302.332	1.39
302.707	1.31
303.082	1.28
303.457	1.33
303.832	1.36
304.207	1.26
304.582	1.3
304.957	1.24
305.332	1.37
305.707	1.3
306.082	1.21
306.456	1.34
306.831	1.25
307.206	1.24
307.58	1.28
307.955	1.2
308.33	1.22
308.704	1.22
309.079	1.17
309.453	1.27
309.828	1.18
310.202	1.14
310.576	1.16
310.951	1.24
311.325	1.17
311.699	1.14
312.073	1.11
312.447	1.14
312.821	1.14
313.196	1.17
313.57	1.04
313.944	1.14
314.317	1.07
314.691	1.16
315.065	1.14
315.439	1.11
315.813	1.11
316.187	1.07
316.56	1.16
316.934	1.11
317.308	1.14
317.681	1.08
318.055	1.1
318.428	1.09
318.802	1.11
319.175	1.07
319.549	1.11
319.922	1.1
320.295	1.13
320.669	1.1
321.042	1.17
321.415	1.14
321.788	1.09
322.162	1.1
322.535	1.18
322.908	1.11
323.281	1.09
323.654	1.14
324.027	1.08
324.4	1.15
324.773	1.1
325.145	1.18
325.518	1.11
325.891	1.07
326.264	1.23
326.636	1.12
327.009	1.11
327.382	1.14
327.754	1.15
328.127	1.09
328.499	1.16
328.872	1.11
329.244	1.19
329.616	1.13
329.989	1.15
330.361	1.15
330.733	1.14
331.106	1.12
331.478	1.22
331.85	1.16
332.222	1.16
332.594	1.27
332.966	1.16
333.338	1.27
333.71	1.18
334.082	1.28
334.454	1.2
334.826	1.17
335.197	1.23
335.569	1.18
335.941	1.17
336.312	1.25
336.684	1.2
337.056	1.22
337.427	1.23
337.799	1.23
338.17	1.22
338.542	1.23
338.913	1.31
339.284	1.22
339.656	1.2
340.027	1.25
340.398	1.33
340.769	1.25
341.141	1.32
341.512	1.22
341.883	1.26
342.254	1.21
342.625	1.31
342.996	1.25
343.367	1.25
343.738	1.3
344.108	1.24
344.479	1.39
344.85	1.27
345.221	1.36
345.591	1.22
345.962	1.26
346.333	1.19
346.703	1.22
347.074	1.23
347.444	1.36
347.815	1.35
348.185	1.31
348.556	1.3
348.926	1.24
349.296	1.39
349.666	1.22
350.037	1.29
350.407	1.27
350.777	1.34
351.147	1.38
351.517	1.33
351.887	1.27
352.257	1.36
352.627	1.38
352.997	1.3
353.367	1.42
353.737	1.38
354.106	1.32
354.476	1.33
354.846	1.3
355.216	1.35
355.585	1.38
355.955	1.4
356.324	1.34
356.694	1.37
357.063	1.33
357.433	1.31
357.802	1.45
358.171	1.5
358.541	1.46
358.91	1.52
359.279	1.49
359.648	1.46
360.017	1.56
360.387	1.61
360.756	1.43
361.125	1.45
361.494	1.6
361.863	1.42
362.231	1.5
362.6	1.5
362.969	1.46
363.338	1.51
363.707	1.67
364.075	1.77
364.444	1.47
364.813	1.41
365.181	1.53
365.55	1.59
365.918	1.65
366.287	1.5
366.655	1.51
367.024	1.55
367.392	1.52
367.76	1.47
368.128	1.63
368.497	1.51
368.865	1.56
369.233	1.43
369.601	1.57
369.969	1.55
370.337	1.56
370.705	1.77
371.073	2.1
371.441	1.57
371.809	1.41
372.177	1.61
372.544	1.69
372.912	1.54
373.28	1.53
373.647	1.59
374.015	1.57
374.383	1.91
374.75	1.67
375.118	1.59
375.485	1.57
375.853	1.65
376.22	1.72
376.587	1.43
376.955	1.76
377.322	1.79
377.689	1.6
378.056	1.48
378.423	1.5
378.79	1.66
379.157	1.57
379.524	1.74
379.891	1.49
380.258	1.69
380.625	1.55
380.992	1.61
381.359	1.55
381.726	1.73
382.092	1.64
382.459	1.47
382.826	1.59
383.192	1.58
383.559	1.58
383.925	1.61
384.292	1.47
384.658	1.75
385.025	1.57
385.391	1.84
385.757	1.63
386.123	1.69
386.49	1.61
386.856	1.48
387.222	1.5
387.588	1.58
387.954	1.75
388.32	1.7
388.686	1.59
389.052	1.55
389.418	1.67
389.784	1.59
390.15	1.67
390.515	1.42
390.881	1.71
391.247	1.58
391.613	1.59
391.978	1.49
392.344	1.6
392.709	1.54
393.075	1.54
393.44	1.62
393.806	1.57
394.171	1.44
394.536	1.61
394.902	1.64
395.267	1.56
395.632	1.5
395.997	1.61
396.362	1.59
396.727	1.52
397.092	1.57
397.457	1.63
397.822	1.51
398.187	1.78
398.552	1.57
398.917	1.67
399.282	1.59
399.646	1.75
400.011	1.61
400.376	1.48
400.74	1.66
401.105	1.67
401.47	1.47
401.834	1.56
402.199	1.41
402.563	1.52
402.927	1.58
403.292	1.81
403.656	1.59
404.02	1.66
404.384	1.88
404.749	1.64
405.113	1.7
405.477	1.65
405.841	1.63
406.205	1.5
406.569	1.49
406.933	1.51
407.296	1.52
407.66	1.67
408.024	1.85
408.388	1.77
408.752	1.48
409.115	1.68
409.479	1.56
409.842	1.63
410.206	1.52
410.569	1.52
410.933	1.58
411.296	1.39
411.66	1.59
412.023	1.48
412.386	1.43
412.749	1.42
413.113	1.61
413.476	1.48
413.839	1.74
414.202	1.59
414.565	1.5
414.928	1.62
415.291	1.42
415.654	1.46
416.017	1.58
416.38	1.32
416.742	1.46
417.105	1.45
417.468	1.47
417.83	1.51
418.193	1.59
418.556	1.45
418.918	1.43
419.281	1.48
419.643	1.58
420.005	1.53
420.368	1.58
420.73	1.46
421.092	1.44
421.455	1.45
421.817	1.4
422.179	1.5
422.541	1.51
422.903	1.53
423.265	1.55
423.627	1.52
423.989	1.46
424.351	1.45
424.713	1.41
425.075	1.46
425.436	1.49
425.798	1.46
426.16	1.58
426.521	1.46
426.883	1.57
427.245	1.5
427.606	1.41
427.967	1.37
428.329	1.44
428.69	1.52
429.052	1.41
429.413	1.51
429.774	1.49
430.135	1.51
430.497	1.43
430.858	1.43
431.219	1.49
431.58	1.39
431.941	1.38
432.302	1.37
432.663	1.49
433.024	1.55
433.384	1.49
433.745	1.32
434.106	1.49
434.467	1.38
434.827	1.4
435.188	1.43
435.548	1.54
435.909	1.43
436.269	1.49
436.63	1.43
436.99	1.43
437.351	1.36
437.711	1.37
438.071	1.39
438.431	1.37
438.792	1.37
439.152	1.37
439.512	1.38
439.872	1.35
440.232	1.36
440.592	1.33
440.952	1.39
441.312	1.31
441.671	1.43
442.031	1.3
442.391	1.28
442.751	1.4
443.11	1.36
443.47	1.3
443.83	1.29
444.189	1.3
444.549	1.27
444.908	1.32
445.267	1.31
445.627	1.31
445.986	1.26
446.345	1.24
446.705	1.32
447.064	1.25
447.423	1.2
447.782	1.27
448.141	1.23
448.5	1.19
448.859	1.18
449.218	1.21
449.577	1.22
449.936	1.17
450.295	1.18
450.653	1.16
451.012	1.16
451.371	1.15
451.729	1.17
452.088	1.19
452.447	1.17
452.805	1.12
453.163	1.15
453.522	1.13
453.88	1.1
454.239	1.09
454.597	1.07
454.955	1.04
455.313	1.07
455.671	1.06
456.029	1.03
456.388	1.03
456.746	1.04
457.104	1
457.461	1
457.819	1
458.177	0.98
458.535	0.98
458.893	0.97
459.25	0.94
459.608	0.93
459.966	0.92
460.323	0.91
460.681	0.9
461.038	0.88
461.396	0.88
461.753	0.85
462.111	0.85
462.468	0.84
462.825	0.83
463.182	0.81
463.54	0.81
463.897	0.8
464.254	0.8
464.611	0.77
464.968	0.77
465.325	0.76
465.682	0.75
466.039	0.74
466.395	0.71
466.752	0.71
467.109	0.71
467.466	0.7
467.822	0.69
468.179	0.67
468.535	0.66
468.892	0.66
469.248	0.63
469.605	0.63
469.961	0.63
470.318	0.64
470.674	0.61
471.03	0.59
471.386	0.6
471.743	0.57
472.099	0.57
472.455	0.57
472.811	0.54
473.167	0.55
473.523	0.53
473.879	0.53
474.235	0.53
474.59	0.51
474.946	0.5
475.302	0.51
475.657	0.49
476.013	0.49
476.369	0.46
476.724	0.47
477.08	0.46
477.435	0.46
477.791	0.45
478.146	0.45
478.501	0.44
478.857	0.43
479.212	0.42
479.567	0.41
479.922	0.4
480.277	0.39
480.632	0.38
480.987	0.39
481.342	0.38
481.697	0.36
482.052	0.36
482.407	0.36
482.762	0.34
483.116	0.34
483.471	0.34
483.826	0.33
484.18	0.33
484.535	0.32
484.89	0.32
485.244	0.31
485.598	0.31
485.953	0.3
486.307	0.3
486.661	0.3
487.016	0.29
487.37	0.28
487.724	0.28
488.078	0.28
488.432	0.27
488.786	0.28
489.14	0.27
489.494	0.26
489.848	0.26
490.202	0.25
490.556	0.25
490.91	0.25
491.263	0.24
491.617	0.24
491.971	0.23
492.324	0.24
492.678	0.24
493.031	0.23
493.385	0.22
493.738	0.23
494.091	0.22
494.445	0.23
494.798	0.22
495.151	0.21
495.504	0.21
495.857	0.22
496.21	0.21
496.564	0.21
496.916	0.21
497.269	0.2
497.622	0.2
497.975	0.2
498.328	0.2
498.681	0.19
499.033	0.18
499.386	0.19
499.739	0.18
500.091	0.18
500.444	0.18
500.796	0.18
501.149	0.17
501.501	0.17
501.854	0.18
502.206	0.17
502.558	0.18
502.91	0.18
503.263	0.17
503.615	0.17
503.967	0.16
504.319	0.17
504.671	0.16
505.023	0.16
505.375	0.16
505.726	0.16
506.078	0.16
506.43	0.16
506.782	0.16
507.133	0.15
507.485	0.17
507.837	0.16
508.188	0.16
508.54	0.16
508.891	0.16
509.243	0.15
509.594	0.15
509.945	0.15
510.296	0.14
510.648	0.16
510.999	0.14
511.35	0.15
511.701	0.16
512.052	0.15
512.403	0.15
512.754	0.15
513.105	0.14
513.456	0.15
513.807	0.14
514.157	0.15
514.508	0.15
514.859	0.14
515.209	0.14
515.56	0.15
515.91	0.14
516.261	0.15
516.611	0.14
516.962	0.14
517.312	0.15
517.662	0.14
518.013	0.14
518.363	0.15
518.713	0.15
519.063	0.15
519.413	0.15
519.763	0.15
520.113	0.14
520.463	0.15
520.813	0.15
521.163	0.15
521.512	0.15
521.862	0.14
522.212	0.14
522.562	0.15
522.911	0.15
523.261	0.14
523.61	0.15
523.96	0.14
524.309	0.15
524.658	0.15
525.008	0.15
525.357	0.15
525.706	0.15
526.056	0.14
526.405	0.14
526.754	0.14
527.103	0.15
527.452	0.14
527.801	0.15
528.15	0.15
528.499	0.15
528.847	0.15
529.196	0.15
529.545	0.15
529.893	0.15
530.242	0.15
530.591	0.15
530.939	0.16
531.288	0.15
531.636	0.16
531.985	0.15
532.333	0.15
532.681	0.15
533.029	0.15
533.378	0.15
533.726	0.14
534.074	0.15
534.422	0.15
534.77	0.14
535.118	0.15
535.466	0.14
535.814	0.14
536.162	0.15
536.509	0.16
536.857	0.15
537.205	0.16
537.552	0.16
537.9	0.15
538.248	0.16
538.595	0.15
538.943	0.15
539.29	0.15
539.637	0.15
539.985	0.15
540.332	0.15
540.679	0.15
541.026	0.15
541.373	0.15
541.721	0.14
542.068	0.15
542.415	0.15
542.762	0.15
543.108	0.14
543.455	0.14
543.802	0.15
544.149	0.15
544.496	0.15
544.842	0.14
545.189	0.14
545.535	0.14
545.882	0.15
546.228	0.14
546.575	0.13
546.921	0.13
547.267	0.14
547.614	0.14
547.96	0.14
548.306	0.14
548.652	0.14
548.998	0.14
549.344	0.14
549.69	0.14
550.036	0.14
550.382	0.13
550.728	0.14
551.074	0.15
551.42	0.14
551.765	0.14
552.111	0.15
552.457	0.16
552.802	0.15
553.148	0.15
553.493	0.14
553.839	0.15
554.184	0.15
554.529	0.14
554.875	0.15
555.22	0.15
555.565	0.16
555.91	0.14
556.255	0.15
556.6	0.15
556.945	0.14
557.29	0.15
557.635	0.15
557.98	0.15
558.325	0.15
558.67	0.15
559.014	0.15
559.359	0.15
559.704	0.15
560.048	0.14
560.393	0.15
560.737	0.14
561.082	0.15
561.426	0.14
561.77	0.14
562.115	0.13
562.459	0.14
562.803	0.14
563.147	0.15
563.491	0.15
563.835	0.15
564.179	0.15
564.523	0.15
564.867	0.13
565.211	0.15
565.555	0.15
565.899	0.15
566.242	0.15
566.586	0.14
566.93	0.14
567.273	0.16
567.617	0.15
567.96	0.15
568.304	0.15
568.647	0.14
568.99	0.15
569.334	0.16
569.677	0.15
570.02	0.16
570.363	0.15
570.706	0.15
571.049	0.15
571.392	0.15
571.735	0.14
572.078	0.16
572.421	0.16
572.764	0.15
573.106	0.15
573.449	0.15
573.792	0.15
574.134	0.14
574.477	0.15
574.819	0.15
575.162	0.14
575.504	0.14
575.847	0.15
576.189	0.15
576.531	0.15
576.873	0.14
577.215	0.14
577.558	0.15
577.9	0.15
578.242	0.15
578.584	0.15
578.926	0.15
579.267	0.14
579.609	0.14
579.951	0.14
580.293	0.14
580.634	0.15
580.976	0.15
581.318	0.15
581.659	0.14
582.001	0.15
582.342	0.14
582.683	0.15
583.025	0.14
583.366	0.14
583.707	0.14
584.049	0.15
584.39	0.14
584.731	0.14
585.072	0.14
585.413	0.15
585.754	0.14
586.095	0.14
586.435	0.15
586.776	0.15
587.117	0.14
587.458	0.14
587.798	0.15
588.139	0.14
588.48	0.14
588.82	0.13
589.161	0.14
589.501	0.15
589.841	0.14
590.182	0.13
590.522	0.14
590.862	0.14
591.202	0.14
591.542	0.14
591.882	0.14
592.222	0.14
592.562	0.14
592.902	0.14
593.242	0.14
593.582	0.14
593.922	0.14
594.261	0.14
594.601	0.14
594.941	0.14
595.28	0.15
595.62	0.14
595.959	0.14
596.299	0.14
596.638	0.13
596.977	0.14
597.317	0.15
597.656	0.15
597.995	0.15
598.334	0.16
598.673	0.14
599.012	0.14
599.351	0.15
599.69	0.14
600.029	0.16
600.368	0.15
600.707	0.15
601.046	0.15
601.384	0.16
601.723	0.15
602.061	0.14
602.4	0.15
602.738	0.15
603.077	0.15
603.415	0.14
603.754	0.15
604.092	0.14
604.43	0.14
604.768	0.15
605.107	0.15
605.445	0.14
605.783	0.14
606.121	0.14
606.459	0.14
606.796	0.14
607.134	0.14
607.472	0.14
607.81	0.15
608.148	0.14
608.485	0.14
608.823	0.14
609.16	0.14
609.498	0.15
609.835	0.13
610.173	0.14
610.51	0.14
610.847	0.14
611.185	0.14
611.522	0.15
611.859	0.14
612.196	0.14
612.533	0.14
612.87	0.15
613.207	0.15
613.544	0.14
613.881	0.16
614.217	0.15
614.554	0.15
614.891	0.14
615.228	0.15
615.564	0.15
615.901	0.15
616.237	0.15
616.574	0.14
616.91	0.15
617.246	0.15
617.583	0.15
617.919	0.15
618.255	0.15
618.591	0.15
618.927	0.15
619.263	0.15
619.599	0.15
619.935	0.15
620.271	0.15
620.607	0.15
620.943	0.15
621.279	0.15
621.614	0.15
621.95	0.15
622.286	0.14
622.621	0.14
622.957	0.14
623.292	0.14
623.627	0.13
623.963	0.14
624.298	0.14
624.633	0.14
624.968	0.14
625.304	0.14
625.639	0.14
625.974	0.14
626.309	0.13
626.644	0.14
626.979	0.14
627.313	0.14
627.648	0.14
627.983	0.14
628.318	0.14
628.652	0.13
628.987	0.14
629.321	0.14
629.656	0.13
629.99	0.13
630.325	0.13
630.659	0.13
630.993	0.12
631.327	0.13
631.662	0.12
631.996	0.12
632.33	0.12
632.664	0.13
632.998	0.12
633.332	0.12
633.666	0.13
633.999	0.12
634.333	0.12
634.667	0.12
635.001	0.12
635.334	0.12
635.668	0.12
636.001	0.12
636.335	0.12
636.668	0.12
637.001	0.11
637.335	0.12
637.668	0.12
638.001	0.12
638.334	0.12
638.668	0.11
639.001	0.12
639.334	0.12
639.667	0.12
639.999	0.12
640.332	0.12
640.665	0.11
640.998	0.12
641.331	0.12
641.663	0.12
641.996	0.12
642.328	0.12
642.661	0.12
642.993	0.12
643.326	0.13
643.658	0.12
643.99	0.12
644.323	0.12
644.655	0.12
644.987	0.13
645.319	0.13
645.651	0.12
645.983	0.13
646.315	0.12
646.647	0.13
646.979	0.13
647.31	0.13
647.642	0.12
647.974	0.12
648.305	0.13
648.637	0.13
648.968	0.13
649.3	0.12
649.631	0.12
649.963	0.12
650.294	0.12
650.625	0.12
650.957	0.12
651.288	0.12
651.619	0.12
651.95	0.13
652.281	0.13
652.612	0.13
652.943	0.13
653.274	0.13
653.604	0.13
653.935	0.12
654.266	0.13
654.596	0.12
654.927	0.12
655.258	0.12
655.588	0.13
655.918	0.12
656.249	0.11
656.579	0.12
656.909	0.11
657.24	0.12
657.57	0.12
657.9	0.12
658.23	0.12
658.56	0.13
658.89	0.12
659.22	0.11
659.55	0.12
659.88	0.11
660.209	0.12
660.539	0.13
660.869	0.12
661.198	0.12
661.528	0.12
661.857	0.11
662.187	0.12
662.516	0.12
662.846	0.11
663.175	0.11
663.504	0.11
663.833	0.11
664.163	0.12
664.492	0.11
664.821	0.11
665.15	0.12
665.479	0.12
665.807	0.11
666.136	0.11
666.465	0.11
666.794	0.11
667.122	0.12
667.451	0.12
667.78	0.11
668.108	0.12
668.437	0.12
668.765	0.12
669.093	0.13
669.422	0.12
669.75	0.12
670.078	0.11
670.406	0.12
670.734	0.12
671.062	0.12
671.39	0.12
671.718	0.12
672.046	0.11
672.374	0.11
672.702	0.11
673.029	0.11
673.357	0.12
673.685	0.12
674.012	0.11
674.34	0.11
674.667	0.12
674.995	0.11
675.322	0.11
675.649	0.11
675.977	0.11
676.304	0.11
676.631	0.12
676.958	0.11
677.285	0.11
677.612	0.1
677.939	0.1
678.266	0.11
678.593	0.11
678.92	0.11
679.246	0.1
679.573	0.1
679.9	0.11
680.226	0.11
680.553	0.11
680.879	0.11
681.206	0.11
681.532	0.1
681.858	0.1
682.184	0.11
682.511	0.11
682.837	0.11
683.163	0.11
683.489	0.11
683.815	0.11
684.141	0.1
684.467	0.11
684.793	0.11
685.118	0.1
685.444	0.11
685.77	0.11
686.095	0.1
686.421	0.11
686.746	0.1
687.072	0.1
687.397	0.1
687.723	0.1
688.048	0.11
688.373	0.1
688.698	0.1
689.023	0.1
689.349	0.1
689.674	0.1
689.999	0.09
690.323	0.09
690.648	0.1
690.973	0.09
691.298	0.09
691.623	0.09
691.947	0.1
692.272	0.09
692.596	0.1
692.921	0.1
693.245	0.1
693.57	0.1
693.894	0.11
694.218	0.1
694.543	0.11
694.867	0.1
695.191	0.1
695.515	0.11
695.839	0.09
696.163	0.1
696.487	0.11
696.811	0.1
697.135	0.1
697.458	0.1
697.782	0.1
698.106	0.1
698.429	0.1
698.753	0.09
699.076	0.1
699.4	0.1
699.723	0.1
700.046	0.1
700.37	0.1
700.693	0.1
701.016	0.09
701.339	0.09
701.662	0.1
701.985	0.1
702.308	0.09
702.631	0.1
702.954	0.1
703.277	0.1
703.599	0.1
703.922	0.09
704.245	0.09
704.567	0.09
704.89	0.09
705.212	0.09
705.535	0.08
705.857	0.08
706.179	0.08
706.502	0.08
706.824	0.08
707.146	0.09
707.468	0.09
707.79	0.09
708.112	0.08
708.434	0.09
708.756	0.08
709.078	0.09
709.399	0.08
709.721	0.08
710.043	0.09
710.364	0.09
710.686	0.09
711.007	0.09
711.329	0.1
711.65	0.08
711.972	0.09
712.293	0.09
712.614	0.09
712.935	0.09
713.256	0.09
713.577	0.1
713.898	0.09
714.219	0.09
714.54	0.09
714.861	0.08
715.182	0.08
715.503	0.08
715.823	0.09
716.144	0.09
716.464	0.08
716.785	0.08
717.105	0.07
717.426	0.08
717.746	0.08
718.066	0.07
718.387	0.08
718.707	0.08
719.027	0.09
719.347	0.07
719.667	0.08
719.987	0.08
720.307	0.07
720.627	0.08
720.947	0.08
721.266	0.08
721.586	0.07
721.906	0.07
722.225	0.07
722.545	0.08
722.864	0.07
723.184	0.08
723.503	0.08
723.823	0.08
724.142	0.07
