Data from 12-12-AQDScycling_Absorbance__454__00454.txt Node

Date: Tue Dec 12 12:50:14 EST 2023
User: kyuminlee
Spectrometer: FLMS00943
Trigger mode: 0
Integration Time (sec): 1.000000E-1
Scans to average: 1
Electric dark correction enabled: true
Nonlinearity correction enabled: false
Boxcar width: 0
XAxis mode: Wavelengths
Number of Pixels in Spectrum: 2048
>>>>>Begin Spectral Data<<<<<
179.651	-0
180.037	-0
180.424	-0
180.81	0.47
181.197	0.53
181.583	0.17
181.97	-0.03
182.356	-0
182.743	-0.72
183.129	0.2
183.515	0.52
183.901	-2.67
184.288	0.14
184.674	-0
185.06	-0
185.446	0.55
185.832	-1.03
186.218	1.11
186.604	-0.21
186.99	-0
187.376	0.5
187.762	0.86
188.148	-0
188.534	0.3
188.92	0.05
189.305	0.07
189.691	0.3
190.077	0.04
190.463	0.14
190.848	0.12
191.234	0.2
191.619	0.1
192.005	0.02
192.391	0.18
192.776	0.13
193.161	0.18
193.547	0.06
193.932	0.03
194.318	0.07
194.703	0.17
195.088	0.18
195.473	0.1
195.859	0.12
196.244	0.15
196.629	0.11
197.014	0.09
197.399	0.15
197.784	0.17
198.169	0.19
198.554	0.26
198.939	0.17
199.324	0.06
199.709	0.03
200.094	0.1
200.478	-0.06
200.863	0.12
201.248	0.14
201.633	0.14
202.017	0.16
202.402	0.1
202.787	0.04
203.171	0.1
203.556	0.18
203.94	0.24
204.325	0.27
204.709	0.25
205.093	0.2
205.478	0.15
205.862	0.2
206.246	0.28
206.631	0.13
207.015	0.11
207.399	0.13
207.783	0.04
208.167	0.1
208.551	0.23
208.935	0.12
209.319	0.17
209.703	0.05
210.087	0.34
210.471	0.1
210.855	0.1
211.239	0.2
211.623	0.26
212.007	0.3
212.39	0.44
212.774	0.12
213.158	0.16
213.541	0.27
213.925	0.2
214.309	0.23
214.692	0.31
215.076	0.17
215.459	0.18
215.842	0.07
216.226	0.16
216.609	0.28
216.993	0.17
217.376	0.4
217.759	0.25
218.142	0.24
218.525	0.41
218.909	0.34
219.292	0.3
219.675	0.35
220.058	0.41
220.441	0.48
220.824	0.43
221.207	0.65
221.59	0.49
221.973	0.49
222.355	0.56
222.738	0.71
223.121	0.62
223.504	0.55
223.886	0.64
224.269	0.65
224.652	0.6
225.034	0.76
225.417	0.68
225.799	0.76
226.182	0.92
226.564	0.95
226.947	0.78
227.329	0.85
227.711	0.93
228.094	0.84
228.476	0.88
228.858	0.84
229.24	0.86
229.623	0.81
230.005	0.89
230.387	0.91
230.769	0.8
231.151	0.99
231.533	0.97
231.915	1.09
232.297	1.26
232.679	0.91
233.061	0.94
233.442	0.99
233.824	0.9
234.206	1.05
234.588	1.06
234.969	1.02
235.351	0.96
235.733	1.15
236.114	1.31
236.496	1.22
236.877	1.02
237.259	1.12
237.64	1.08
238.022	1.07
238.403	0.95
238.784	0.99
239.165	0.92
239.547	1.12
239.928	1.06
240.309	1.11
240.69	1.16
241.071	1.07
241.452	1.17
241.834	1.02
242.215	1.13
242.595	0.99
242.976	1.13
243.357	1.11
243.738	1.08
244.119	1.15
244.5	1.08
244.881	1.23
245.261	1.15
245.642	1.19
246.023	1.14
246.403	1.16
246.784	1.3
247.164	1.26
247.545	1.18
247.925	1.32
248.306	1.15
248.686	1.39
249.067	1.19
249.447	1.41
249.827	1.33
250.207	1.48
250.588	1.32
250.968	1.42
251.348	1.37
251.728	1.36
252.108	1.34
252.488	1.41
252.868	1.4
253.248	1.4
253.628	1.3
254.008	1.5
254.388	1.28
254.768	1.24
255.147	1.32
255.527	1.4
255.907	1.23
256.287	1.37
256.666	1.47
257.046	1.62
257.425	1.63
257.805	1.3
258.184	1.26
258.564	1.39
258.943	1.34
259.323	1.46
259.702	1.48
260.081	1.46
260.461	1.46
260.84	1.51
261.219	1.63
261.598	1.5
261.977	1.44
262.356	1.38
262.736	1.51
263.115	1.65
263.494	1.36
263.873	1.44
264.251	1.34
264.63	1.63
265.009	1.34
265.388	1.32
265.767	1.33
266.145	1.33
266.524	1.5
266.903	1.36
267.281	1.46
267.66	1.45
268.039	1.37
268.417	1.33
268.796	1.35
269.174	1.45
269.552	1.25
269.931	1.43
270.309	1.45
270.687	1.54
271.066	1.66
271.444	1.45
271.822	1.32
272.2	1.33
272.578	1.4
272.956	1.4
273.334	1.25
273.712	1.63
274.09	1.38
274.468	1.43
274.846	1.35
275.224	1.29
275.602	1.36
275.98	1.59
276.357	1.42
276.735	1.49
277.113	1.56
277.49	1.39
277.868	1.33
278.246	1.46
278.623	1.37
279.001	1.35
279.378	1.3
279.756	1.42
280.133	1.42
280.51	1.33
280.888	1.5
281.265	1.42
281.642	1.37
282.019	1.48
282.396	1.55
282.773	1.48
283.151	1.46
283.528	1.59
283.905	1.38
284.282	1.52
284.659	1.43
285.035	1.3
285.412	1.35
285.789	1.46
286.166	1.46
286.543	1.43
286.919	1.46
287.296	1.3
287.673	1.48
288.049	1.63
288.426	1.45
288.802	1.39
289.179	1.42
289.555	1.51
289.932	1.39
290.308	1.29
290.684	1.34
291.061	1.3
291.437	1.53
291.813	1.38
292.189	1.24
292.565	1.36
292.942	1.28
293.318	1.42
293.694	1.56
294.07	1.33
294.446	1.51
294.822	1.53
295.197	1.47
295.573	1.46
295.949	1.47
296.325	1.42
296.701	1.45
297.076	1.55
297.452	1.6
297.828	1.48
298.203	1.64
298.579	1.41
298.954	1.44
299.33	1.4
299.705	1.43
300.081	1.5
300.456	1.5
300.831	1.38
301.206	1.42
301.582	1.47
301.957	1.41
302.332	1.7
302.707	1.43
303.082	1.35
303.457	1.5
303.832	1.56
304.207	1.5
304.582	1.47
304.957	1.55
305.332	1.59
305.707	1.53
306.082	1.54
306.456	1.57
306.831	1.38
307.206	1.48
307.58	1.57
307.955	1.53
308.33	1.49
308.704	1.53
309.079	1.5
309.453	1.83
309.828	1.57
310.202	1.53
310.576	1.4
310.951	1.73
311.325	1.45
311.699	1.49
312.073	1.42
312.447	1.54
312.821	1.37
313.196	1.47
313.57	1.37
313.944	1.48
314.317	1.41
314.691	1.49
315.065	1.58
315.439	1.46
315.813	1.5
316.187	1.43
316.56	1.61
316.934	1.52
317.308	1.48
317.681	1.62
318.055	1.51
318.428	1.44
318.802	1.73
319.175	1.53
319.549	1.52
319.922	1.35
320.295	1.48
320.669	1.58
321.042	1.51
321.415	1.7
321.788	1.53
322.162	1.57
322.535	1.51
322.908	1.49
323.281	1.49
323.654	1.6
324.027	1.44
324.4	1.48
324.773	1.51
325.145	1.46
325.518	1.39
325.891	1.35
326.264	1.58
326.636	1.42
327.009	1.33
327.382	1.54
327.754	1.5
328.127	1.42
328.499	1.51
328.872	1.54
329.244	1.51
329.616	1.46
329.989	1.69
330.361	1.49
330.733	1.44
331.106	1.48
331.478	1.53
331.85	1.47
332.222	1.33
332.594	1.47
332.966	1.49
333.338	1.71
333.71	1.47
334.082	1.74
334.454	1.47
334.826	1.67
335.197	1.56
335.569	1.51
335.941	1.47
336.312	1.49
336.684	1.52
337.056	1.43
337.427	1.54
337.799	1.49
338.17	1.63
338.542	1.51
338.913	1.52
339.284	1.52
339.656	1.54
340.027	1.53
340.398	1.55
340.769	1.53
341.141	1.65
341.512	1.59
341.883	1.65
342.254	1.51
342.625	1.55
342.996	1.52
343.367	1.45
343.738	1.51
344.108	1.41
344.479	1.58
344.85	1.42
345.221	1.53
345.591	1.41
345.962	1.47
346.333	1.64
346.703	1.25
347.074	1.37
347.444	1.43
347.815	1.43
348.185	1.38
348.556	1.35
348.926	1.45
349.296	1.32
349.666	1.36
350.037	1.27
350.407	1.29
350.777	1.4
351.147	1.39
351.517	1.35
351.887	1.27
352.257	1.35
352.627	1.31
352.997	1.31
353.367	1.29
353.737	1.33
354.106	1.45
354.476	1.27
354.846	1.36
355.216	1.34
355.585	1.3
355.955	1.3
356.324	1.36
356.694	1.36
357.063	1.26
357.433	1.27
357.802	1.3
358.171	1.28
358.541	1.19
358.91	1.24
359.279	1.21
359.648	1.2
360.017	1.21
360.387	1.15
360.756	1.08
361.125	1.11
361.494	1.16
361.863	1.07
362.231	1.06
362.6	1.02
362.969	1
363.338	0.94
363.707	1
364.075	1.03
364.444	0.94
364.813	0.93
365.181	0.93
365.55	0.92
365.918	0.91
366.287	0.9
366.655	0.91
367.024	0.88
367.392	0.85
367.76	0.83
368.128	0.82
368.497	0.82
368.865	0.78
369.233	0.81
369.601	0.78
369.969	0.8
370.337	0.8
370.705	0.77
371.073	0.75
371.441	0.74
371.809	0.73
372.177	0.72
372.544	0.72
372.912	0.71
373.28	0.73
373.647	0.72
374.015	0.74
374.383	0.7
374.75	0.69
375.118	0.69
375.485	0.68
375.853	0.69
376.22	0.66
376.587	0.65
376.955	0.66
377.322	0.65
377.689	0.65
378.056	0.64
378.423	0.64
378.79	0.66
379.157	0.64
379.524	0.63
379.891	0.65
380.258	0.65
380.625	0.63
380.992	0.64
381.359	0.63
381.726	0.64
382.092	0.62
382.459	0.62
382.826	0.63
383.192	0.63
383.559	0.64
383.925	0.64
384.292	0.63
384.658	0.65
385.025	0.62
385.391	0.63
385.757	0.65
386.123	0.63
386.49	0.65
386.856	0.64
387.222	0.62
387.588	0.63
387.954	0.65
388.32	0.67
388.686	0.66
389.052	0.64
389.418	0.64
389.784	0.64
390.15	0.67
390.515	0.63
390.881	0.69
391.247	0.65
391.613	0.64
391.978	0.63
392.344	0.67
392.709	0.63
393.075	0.63
393.44	0.64
393.806	0.64
394.171	0.61
394.536	0.65
394.902	0.63
395.267	0.64
395.632	0.61
395.997	0.63
396.362	0.64
396.727	0.63
397.092	0.64
397.457	0.62
397.822	0.62
398.187	0.61
398.552	0.6
398.917	0.57
399.282	0.61
399.646	0.57
400.011	0.58
400.376	0.59
400.74	0.59
401.105	0.59
401.47	0.57
401.834	0.56
402.199	0.57
402.563	0.54
402.927	0.55
403.292	0.57
403.656	0.56
404.02	0.56
404.384	0.55
404.749	0.56
405.113	0.55
405.477	0.54
405.841	0.54
406.205	0.53
406.569	0.51
406.933	0.51
407.296	0.52
407.66	0.52
408.024	0.51
408.388	0.51
408.752	0.48
409.115	0.5
409.479	0.48
409.842	0.5
410.206	0.48
410.569	0.48
410.933	0.48
411.296	0.48
411.66	0.49
412.023	0.46
412.386	0.46
412.749	0.45
413.113	0.48
413.476	0.43
413.839	0.45
414.202	0.45
414.565	0.44
414.928	0.46
415.291	0.43
415.654	0.43
416.017	0.43
416.38	0.44
416.742	0.41
417.105	0.42
417.468	0.42
417.83	0.44
418.193	0.44
418.556	0.42
418.918	0.42
419.281	0.42
419.643	0.42
420.005	0.43
420.368	0.42
420.73	0.39
421.092	0.41
421.455	0.42
421.817	0.4
422.179	0.38
422.541	0.41
422.903	0.39
423.265	0.4
423.627	0.38
423.989	0.38
424.351	0.38
424.713	0.39
425.075	0.37
425.436	0.39
425.798	0.36
426.16	0.37
426.521	0.37
426.883	0.39
427.245	0.36
427.606	0.38
427.967	0.37
428.329	0.37
428.69	0.39
429.052	0.39
429.413	0.36
429.774	0.37
430.135	0.36
430.497	0.36
430.858	0.36
431.219	0.34
431.58	0.38
431.941	0.36
432.302	0.37
432.663	0.37
433.024	0.36
433.384	0.36
433.745	0.35
434.106	0.35
434.467	0.35
434.827	0.35
435.188	0.36
435.548	0.35
435.909	0.35
436.269	0.37
436.63	0.34
436.99	0.34
437.351	0.36
437.711	0.36
438.071	0.33
438.431	0.35
438.792	0.32
439.152	0.33
439.512	0.33
439.872	0.32
440.232	0.34
440.592	0.35
440.952	0.35
441.312	0.32
441.671	0.33
442.031	0.32
442.391	0.31
442.751	0.33
443.11	0.32
443.47	0.31
443.83	0.32
444.189	0.31
444.549	0.31
444.908	0.32
445.267	0.31
445.627	0.31
445.986	0.29
446.345	0.29
446.705	0.3
447.064	0.31
447.423	0.29
447.782	0.3
448.141	0.29
448.5	0.28
448.859	0.3
449.218	0.29
449.577	0.29
449.936	0.3
450.295	0.3
450.653	0.3
451.012	0.3
451.371	0.29
451.729	0.29
452.088	0.28
452.447	0.28
452.805	0.28
453.163	0.29
453.522	0.29
453.88	0.27
454.239	0.27
454.597	0.27
454.955	0.26
455.313	0.26
455.671	0.27
456.029	0.26
456.388	0.26
456.746	0.26
457.104	0.25
457.461	0.24
457.819	0.25
458.177	0.24
458.535	0.24
458.893	0.23
459.25	0.23
459.608	0.24
459.966	0.23
460.323	0.23
460.681	0.22
461.038	0.23
461.396	0.22
461.753	0.23
462.111	0.22
462.468	0.21
462.825	0.21
463.182	0.21
463.54	0.21
463.897	0.21
464.254	0.21
464.611	0.21
464.968	0.21
465.325	0.22
465.682	0.21
466.039	0.2
466.395	0.2
466.752	0.2
467.109	0.2
467.466	0.2
467.822	0.2
468.179	0.18
468.535	0.18
468.892	0.19
469.248	0.18
469.605	0.18
469.961	0.18
470.318	0.19
470.674	0.18
471.03	0.17
471.386	0.18
471.743	0.18
472.099	0.17
472.455	0.18
472.811	0.17
473.167	0.18
473.523	0.16
473.879	0.17
474.235	0.16
474.59	0.16
474.946	0.16
475.302	0.16
475.657	0.15
476.013	0.15
476.369	0.14
476.724	0.15
477.08	0.15
477.435	0.14
477.791	0.13
478.146	0.14
478.501	0.15
478.857	0.14
479.212	0.15
479.567	0.14
479.922	0.14
480.277	0.14
480.632	0.13
480.987	0.14
481.342	0.13
481.697	0.13
482.052	0.13
482.407	0.13
482.762	0.13
483.116	0.12
483.471	0.12
483.826	0.12
484.18	0.12
484.535	0.12
484.89	0.11
485.244	0.12
485.598	0.12
485.953	0.12
486.307	0.11
486.661	0.12
487.016	0.11
487.37	0.12
487.724	0.11
488.078	0.12
488.432	0.11
488.786	0.11
489.14	0.11
489.494	0.11
489.848	0.11
490.202	0.1
490.556	0.1
490.91	0.11
491.263	0.1
491.617	0.1
491.971	0.1
492.324	0.1
492.678	0.1
493.031	0.11
493.385	0.1
493.738	0.1
494.091	0.1
494.445	0.1
494.798	0.1
495.151	0.1
495.504	0.09
495.857	0.1
496.21	0.1
496.564	0.1
496.916	0.1
497.269	0.09
497.622	0.1
497.975	0.09
498.328	0.1
498.681	0.1
499.033	0.09
499.386	0.09
499.739	0.09
500.091	0.09
500.444	0.09
500.796	0.09
501.149	0.08
501.501	0.09
501.854	0.09
502.206	0.09
502.558	0.08
502.91	0.08
503.263	0.09
503.615	0.09
503.967	0.08
504.319	0.09
504.671	0.08
505.023	0.08
505.375	0.08
505.726	0.08
506.078	0.08
506.43	0.08
506.782	0.08
507.133	0.08
507.485	0.09
507.837	0.09
508.188	0.09
508.54	0.08
508.891	0.09
509.243	0.08
509.594	0.09
509.945	0.08
510.296	0.08
510.648	0.09
510.999	0.08
511.35	0.08
511.701	0.08
512.052	0.08
512.403	0.08
512.754	0.08
513.105	0.08
513.456	0.07
513.807	0.07
514.157	0.08
514.508	0.08
514.859	0.08
515.209	0.08
515.56	0.08
515.91	0.08
516.261	0.09
516.611	0.07
516.962	0.08
517.312	0.08
517.662	0.08
518.013	0.07
518.363	0.08
518.713	0.08
519.063	0.08
519.413	0.08
519.763	0.08
520.113	0.08
520.463	0.08
520.813	0.09
521.163	0.09
521.512	0.08
521.862	0.08
522.212	0.08
522.562	0.08
522.911	0.08
523.261	0.08
523.61	0.08
523.96	0.08
524.309	0.08
524.658	0.08
525.008	0.07
525.357	0.08
525.706	0.08
526.056	0.08
526.405	0.08
526.754	0.08
527.103	0.07
527.452	0.08
527.801	0.08
528.15	0.09
528.499	0.08
528.847	0.08
529.196	0.09
529.545	0.09
529.893	0.08
530.242	0.09
530.591	0.09
530.939	0.1
531.288	0.09
531.636	0.09
531.985	0.09
532.333	0.09
532.681	0.08
533.029	0.08
533.378	0.09
533.726	0.09
534.074	0.09
534.422	0.08
534.77	0.09
535.118	0.09
535.466	0.08
535.814	0.09
536.162	0.09
536.509	0.09
536.857	0.08
537.205	0.09
537.552	0.09
537.9	0.09
538.248	0.08
538.595	0.08
538.943	0.09
539.29	0.09
539.637	0.09
539.985	0.09
540.332	0.08
540.679	0.09
541.026	0.08
541.373	0.09
541.721	0.08
542.068	0.08
542.415	0.08
542.762	0.08
543.108	0.07
543.455	0.06
543.802	0.06
544.149	0.07
544.496	0.08
544.842	0.08
545.189	0.06
545.535	0.08
545.882	0.08
546.228	0.07
546.575	0.07
546.921	0.07
547.267	0.08
547.614	0.07
547.96	0.07
548.306	0.07
548.652	0.08
548.998	0.08
549.344	0.07
549.69	0.08
550.036	0.07
550.382	0.07
550.728	0.07
551.074	0.08
551.42	0.08
551.765	0.08
552.111	0.08
552.457	0.08
552.802	0.08
553.148	0.07
553.493	0.07
553.839	0.08
554.184	0.08
554.529	0.07
554.875	0.08
555.22	0.08
555.565	0.08
555.91	0.08
556.255	0.09
556.6	0.08
556.945	0.07
557.29	0.08
557.635	0.08
557.98	0.07
558.325	0.08
558.67	0.08
559.014	0.08
559.359	0.07
559.704	0.08
560.048	0.07
560.393	0.08
560.737	0.08
561.082	0.08
561.426	0.07
561.77	0.08
562.115	0.08
562.459	0.07
562.803	0.08
563.147	0.08
563.491	0.08
563.835	0.08
564.179	0.08
564.523	0.08
564.867	0.07
565.211	0.08
565.555	0.09
565.899	0.08
566.242	0.08
566.586	0.07
566.93	0.08
567.273	0.08
567.617	0.08
567.96	0.08
568.304	0.08
568.647	0.08
568.99	0.08
569.334	0.09
569.677	0.08
570.02	0.09
570.363	0.08
570.706	0.08
571.049	0.08
571.392	0.08
571.735	0.08
572.078	0.08
572.421	0.09
572.764	0.09
573.106	0.08
573.449	0.08
573.792	0.08
574.134	0.08
574.477	0.08
574.819	0.07
575.162	0.08
575.504	0.07
575.847	0.08
576.189	0.08
576.531	0.08
576.873	0.09
577.215	0.08
577.558	0.08
577.9	0.08
578.242	0.08
578.584	0.08
578.926	0.08
579.267	0.08
579.609	0.08
579.951	0.08
580.293	0.08
580.634	0.08
580.976	0.08
581.318	0.08
581.659	0.07
582.001	0.08
582.342	0.08
582.683	0.08
583.025	0.07
583.366	0.07
583.707	0.08
584.049	0.08
584.39	0.08
584.731	0.08
585.072	0.07
585.413	0.08
585.754	0.08
586.095	0.07
586.435	0.08
586.776	0.08
587.117	0.07
587.458	0.07
587.798	0.07
588.139	0.08
588.48	0.07
588.82	0.08
589.161	0.08
589.501	0.08
589.841	0.08
590.182	0.07
590.522	0.07
590.862	0.08
591.202	0.08
591.542	0.07
591.882	0.07
592.222	0.08
592.562	0.08
592.902	0.07
593.242	0.07
593.582	0.08
593.922	0.08
594.261	0.07
594.601	0.08
594.941	0.08
595.28	0.08
595.62	0.08
595.959	0.07
596.299	0.08
596.638	0.07
596.977	0.07
597.317	0.09
597.656	0.08
597.995	0.08
598.334	0.08
598.673	0.07
599.012	0.08
599.351	0.08
599.69	0.08
600.029	0.08
600.368	0.08
600.707	0.08
601.046	0.08
601.384	0.08
601.723	0.09
602.061	0.08
602.4	0.08
602.738	0.08
603.077	0.08
603.415	0.08
603.754	0.07
604.092	0.07
604.43	0.08
604.768	0.07
605.107	0.08
605.445	0.07
605.783	0.07
606.121	0.07
606.459	0.08
606.796	0.08
607.134	0.07
607.472	0.07
607.81	0.08
608.148	0.07
608.485	0.08
608.823	0.08
609.16	0.08
609.498	0.08
609.835	0.07
610.173	0.08
610.51	0.07
610.847	0.08
611.185	0.08
611.522	0.08
611.859	0.08
612.196	0.09
612.533	0.09
612.87	0.08
613.207	0.09
613.544	0.09
613.881	0.1
614.217	0.1
614.554	0.08
614.891	0.09
615.228	0.09
615.564	0.09
615.901	0.09
616.237	0.09
616.574	0.09
616.91	0.09
617.246	0.09
617.583	0.09
617.919	0.09
618.255	0.09
618.591	0.09
618.927	0.09
619.263	0.1
619.599	0.09
619.935	0.09
620.271	0.09
620.607	0.08
620.943	0.09
621.279	0.09
621.614	0.09
621.95	0.09
622.286	0.09
622.621	0.08
622.957	0.08
623.292	0.08
623.627	0.07
623.963	0.08
624.298	0.09
624.633	0.08
624.968	0.08
625.304	0.08
625.639	0.08
625.974	0.08
626.309	0.07
626.644	0.08
626.979	0.08
627.313	0.08
627.648	0.08
627.983	0.08
628.318	0.08
628.652	0.07
628.987	0.07
629.321	0.07
629.656	0.06
629.99	0.07
630.325	0.07
630.659	0.07
630.993	0.06
631.327	0.07
631.662	0.07
631.996	0.07
632.33	0.07
632.664	0.08
632.998	0.07
633.332	0.07
633.666	0.07
633.999	0.07
634.333	0.07
634.667	0.07
635.001	0.07
635.334	0.07
635.668	0.07
636.001	0.07
636.335	0.07
636.668	0.07
637.001	0.07
637.335	0.07
637.668	0.07
638.001	0.06
638.334	0.07
638.668	0.07
639.001	0.06
639.334	0.07
639.667	0.07
639.999	0.07
640.332	0.07
640.665	0.06
640.998	0.07
641.331	0.07
641.663	0.06
641.996	0.07
642.328	0.07
642.661	0.07
642.993	0.06
643.326	0.07
643.658	0.06
643.99	0.06
644.323	0.06
644.655	0.06
644.987	0.07
645.319	0.07
645.651	0.06
645.983	0.06
646.315	0.07
646.647	0.07
646.979	0.07
647.31	0.07
647.642	0.07
647.974	0.07
648.305	0.07
648.637	0.07
648.968	0.07
649.3	0.07
649.631	0.08
649.963	0.07
650.294	0.07
650.625	0.07
650.957	0.08
651.288	0.08
651.619	0.07
651.95	0.08
652.281	0.08
652.612	0.07
652.943	0.08
653.274	0.08
653.604	0.07
653.935	0.07
654.266	0.07
654.596	0.07
654.927	0.07
655.258	0.07
655.588	0.08
655.918	0.07
656.249	0.06
656.579	0.07
656.909	0.07
657.24	0.07
657.57	0.08
657.9	0.08
658.23	0.07
658.56	0.08
658.89	0.08
659.22	0.07
659.55	0.08
659.88	0.08
660.209	0.08
660.539	0.09
660.869	0.08
661.198	0.08
661.528	0.08
661.857	0.07
662.187	0.08
662.516	0.08
662.846	0.07
663.175	0.07
663.504	0.07
663.833	0.07
664.163	0.08
664.492	0.08
664.821	0.08
665.15	0.07
665.479	0.07
665.807	0.07
666.136	0.08
666.465	0.08
666.794	0.07
667.122	0.07
667.451	0.07
667.78	0.07
668.108	0.08
668.437	0.07
668.765	0.07
669.093	0.08
669.422	0.07
669.75	0.07
670.078	0.07
670.406	0.07
670.734	0.07
671.062	0.07
671.39	0.07
671.718	0.08
672.046	0.07
672.374	0.07
672.702	0.07
673.029	0.07
673.357	0.07
673.685	0.08
674.012	0.07
674.34	0.07
674.667	0.07
674.995	0.07
675.322	0.08
675.649	0.07
675.977	0.07
676.304	0.07
676.631	0.07
676.958	0.07
677.285	0.07
677.612	0.06
677.939	0.07
678.266	0.08
678.593	0.07
678.92	0.08
679.246	0.07
679.573	0.07
679.9	0.07
680.226	0.07
680.553	0.06
680.879	0.07
681.206	0.07
681.532	0.07
681.858	0.07
682.184	0.07
682.511	0.07
682.837	0.06
683.163	0.07
683.489	0.07
683.815	0.07
684.141	0.07
684.467	0.07
684.793	0.06
685.118	0.06
685.444	0.07
685.77	0.06
686.095	0.07
686.421	0.06
686.746	0.07
687.072	0.07
687.397	0.07
687.723	0.08
688.048	0.08
688.373	0.06
688.698	0.07
689.023	0.07
689.349	0.07
689.674	0.07
689.999	0.07
690.323	0.07
690.648	0.07
690.973	0.07
691.298	0.07
691.623	0.06
691.947	0.07
692.272	0.07
692.596	0.07
692.921	0.07
693.245	0.07
693.57	0.07
693.894	0.07
694.218	0.07
694.543	0.06
694.867	0.07
695.191	0.06
695.515	0.07
695.839	0.06
696.163	0.06
696.487	0.06
696.811	0.06
697.135	0.07
697.458	0.07
697.782	0.06
698.106	0.07
698.429	0.07
698.753	0.07
699.076	0.07
699.4	0.06
699.723	0.07
700.046	0.06
700.37	0.06
700.693	0.06
701.016	0.07
701.339	0.06
701.662	0.07
701.985	0.07
702.308	0.06
702.631	0.06
702.954	0.07
703.277	0.06
703.599	0.07
703.922	0.06
704.245	0.06
704.567	0.05
704.89	0.06
705.212	0.06
705.535	0.05
705.857	0.05
706.179	0.05
706.502	0.06
706.824	0.05
707.146	0.05
707.468	0.06
707.79	0.05
708.112	0.06
708.434	0.06
708.756	0.06
709.078	0.06
709.399	0.06
709.721	0.06
710.043	0.06
710.364	0.06
710.686	0.06
711.007	0.06
711.329	0.07
711.65	0.07
711.972	0.06
712.293	0.06
712.614	0.07
712.935	0.06
713.256	0.07
713.577	0.07
713.898	0.06
714.219	0.06
714.54	0.06
714.861	0.05
715.182	0.06
715.503	0.05
715.823	0.05
716.144	0.06
716.464	0.05
716.785	0.05
717.105	0.05
717.426	0.06
717.746	0.05
718.066	0.04
718.387	0.05
718.707	0.05
719.027	0.06
719.347	0.04
719.667	0.05
719.987	0.05
720.307	0.04
720.627	0.04
720.947	0.05
721.266	0.05
721.586	0.05
721.906	0.05
722.225	0.05
722.545	0.05
722.864	0.05
723.184	0.06
