Data from 12-12-AQDScycling_Absorbance__318__00318.txt Node

Date: Tue Dec 12 12:16:14 EST 2023
User: kyuminlee
Spectrometer: FLMS00943
Trigger mode: 0
Integration Time (sec): 1.000000E-1
Scans to average: 1
Electric dark correction enabled: true
Nonlinearity correction enabled: false
Boxcar width: 0
XAxis mode: Wavelengths
Number of Pixels in Spectrum: 2048
>>>>>Begin Spectral Data<<<<<
179.651	-0
180.037	-0
180.424	-0
180.81	-0.47
181.197	0.2
181.583	-0.04
181.97	-0.17
182.356	-0
182.743	-1.34
183.129	0.72
183.515	0.23
183.901	-1.43
184.288	0.21
184.674	-0
185.06	-0.36
185.446	0.12
185.832	-1.21
186.218	0.72
186.604	0.01
186.99	-0
187.376	0.61
187.762	0.05
188.148	-0
188.534	-0.27
188.92	0.2
189.305	0.04
189.691	0.15
190.077	0.24
190.463	0.22
190.848	0.1
191.234	0.05
191.619	0.05
192.005	0.17
192.391	0.19
192.776	0.28
193.161	0.1
193.547	0.14
193.932	-0.06
194.318	0.03
194.703	0.34
195.088	0.23
195.473	0.21
195.859	0.24
196.244	0.31
196.629	0.14
197.014	0.1
197.399	0.2
197.784	0.21
198.169	0.14
198.554	0.26
198.939	0.06
199.324	0.16
199.709	0.07
200.094	0.13
200.478	0.14
200.863	0.23
201.248	0.19
201.633	0.19
202.017	0.13
202.402	0.24
202.787	0.2
203.171	0.25
203.556	0.13
203.94	0.14
204.325	0.3
204.709	0.11
205.093	0.18
205.478	0.25
205.862	0.07
206.246	0.2
206.631	0.12
207.015	0.18
207.399	0.23
207.783	0.15
208.167	0.11
208.551	0.39
208.935	0.18
209.319	0.19
209.703	0.4
210.087	0.17
210.471	0.19
210.855	0.15
211.239	0.23
211.623	0.37
212.007	0.19
212.39	0.32
212.774	0.22
213.158	0.19
213.541	0.31
213.925	0.25
214.309	0.44
214.692	0.4
215.076	0.24
215.459	0.13
215.842	0.15
216.226	0.29
216.609	0.4
216.993	0.15
217.376	0.58
217.759	0.18
218.142	0.32
218.525	0.61
218.909	0.32
219.292	0.36
219.675	0.47
220.058	0.46
220.441	0.51
220.824	0.48
221.207	0.6
221.59	0.59
221.973	0.56
222.355	0.78
222.738	0.69
223.121	0.61
223.504	0.61
223.886	0.64
224.269	0.76
224.652	0.68
225.034	0.79
225.417	0.75
225.799	0.77
226.182	0.92
226.564	0.88
226.947	0.84
227.329	0.9
227.711	0.81
228.094	1.07
228.476	0.99
228.858	0.82
229.24	0.87
229.623	1.13
230.005	0.84
230.387	1.05
230.769	1
231.151	1.06
231.533	1.06
231.915	0.93
232.297	1.08
232.679	1.01
233.061	0.95
233.442	1.11
233.824	1.16
234.206	1.16
234.588	1.01
234.969	1.07
235.351	1
235.733	1.16
236.114	1.11
236.496	1.14
236.877	1.14
237.259	0.96
237.64	1.19
238.022	1.07
238.403	0.99
238.784	1.26
239.165	0.92
239.547	1.21
239.928	1.09
240.309	1.09
240.69	1.3
241.071	1.22
241.452	1.18
241.834	1.14
242.215	1.13
242.595	1.07
242.976	1.1
243.357	1.19
243.738	1.09
244.119	1.36
244.5	1.13
244.881	1.25
245.261	1.13
245.642	1.14
246.023	1.07
246.403	1.26
246.784	1.32
247.164	1.33
247.545	1.24
247.925	1.26
248.306	1.31
248.686	1.47
249.067	1.23
249.447	1.44
249.827	1.8
250.207	1.5
250.588	1.44
250.968	1.39
251.348	1.28
251.728	1.57
252.108	1.33
252.488	1.4
252.868	1.38
253.248	1.33
253.628	1.36
254.008	1.59
254.388	1.33
254.768	1.41
255.147	1.55
255.527	1.47
255.907	1.33
256.287	1.34
256.666	1.44
257.046	1.38
257.425	1.55
257.805	1.27
258.184	1.32
258.564	1.36
258.943	1.39
259.323	1.52
259.702	1.39
260.081	1.47
260.461	1.53
260.84	1.5
261.219	1.63
261.598	1.57
261.977	1.49
262.356	1.58
262.736	1.54
263.115	1.76
263.494	1.53
263.873	1.52
264.251	1.53
264.63	1.56
265.009	1.52
265.388	1.42
265.767	1.36
266.145	1.38
266.524	1.36
266.903	1.41
267.281	1.27
267.66	1.45
268.039	1.52
268.417	1.49
268.796	1.42
269.174	1.43
269.552	1.25
269.931	1.63
270.309	1.4
270.687	1.47
271.066	1.48
271.444	1.48
271.822	1.45
272.2	1.45
272.578	1.33
272.956	1.44
273.334	1.3
273.712	1.51
274.09	1.58
274.468	1.58
274.846	1.47
275.224	1.44
275.602	1.62
275.98	1.6
276.357	1.49
276.735	1.46
277.113	1.54
277.49	1.37
277.868	1.45
278.246	1.48
278.623	1.3
279.001	1.38
279.378	1.48
279.756	1.45
280.133	1.75
280.51	1.34
280.888	1.43
281.265	1.36
281.642	1.66
282.019	1.59
282.396	1.54
282.773	1.45
283.151	1.6
283.528	1.43
283.905	1.57
284.282	1.55
284.659	1.54
285.035	1.28
285.412	1.35
285.789	1.44
286.166	1.38
286.543	1.56
286.919	1.52
287.296	1.54
287.673	1.73
288.049	1.53
288.426	1.6
288.802	1.46
289.179	1.53
289.555	1.68
289.932	1.65
290.308	1.32
290.684	1.48
291.061	1.35
291.437	1.74
291.813	1.33
292.189	1.3
292.565	1.29
292.942	1.36
293.318	1.3
293.694	1.43
294.07	1.36
294.446	1.45
294.822	1.62
295.197	1.42
295.573	1.43
295.949	1.37
296.325	1.58
296.701	1.58
297.076	1.58
297.452	1.52
297.828	1.38
298.203	1.72
298.579	1.54
298.954	1.44
299.33	1.43
299.705	1.43
300.081	1.49
300.456	1.43
300.831	1.34
301.206	1.24
301.582	1.38
301.957	1.39
302.332	1.41
302.707	1.36
303.082	1.29
303.457	1.24
303.832	1.27
304.207	1.22
304.582	1.18
304.957	1.22
305.332	1.28
305.707	1.2
306.082	1.23
306.456	1.26
306.831	1.17
307.206	1.12
307.58	1.19
307.955	1.1
308.33	1.15
308.704	1.09
309.079	1.1
309.453	1.15
309.828	1.12
310.202	1.12
310.576	1.05
310.951	1.06
311.325	1.03
311.699	1
312.073	1.05
312.447	0.99
312.821	0.95
313.196	1.01
313.57	0.96
313.944	1.01
314.317	1.01
314.691	0.99
315.065	1
315.439	0.97
315.813	1.01
316.187	0.94
316.56	0.96
316.934	1
317.308	0.98
317.681	0.98
318.055	0.96
318.428	0.91
318.802	1
319.175	0.95
319.549	0.97
319.922	0.95
320.295	0.91
320.669	0.98
321.042	0.99
321.415	0.99
321.788	0.96
322.162	0.92
322.535	0.99
322.908	0.99
323.281	0.97
323.654	0.96
324.027	0.94
324.4	0.97
324.773	1
325.145	0.96
325.518	0.95
325.891	0.95
326.264	1
326.636	0.97
327.009	0.96
327.382	0.96
327.754	1.01
328.127	0.99
328.499	0.98
328.872	1
329.244	0.96
329.616	0.98
329.989	1.01
330.361	1.02
330.733	0.96
331.106	0.99
331.478	1.1
331.85	0.99
332.222	0.99
332.594	0.99
332.966	1
333.338	1.06
333.71	1.04
334.082	1.07
334.454	1
334.826	1.11
335.197	1.08
335.569	1.07
335.941	1.06
336.312	1.1
336.684	1.06
337.056	1.07
337.427	1.11
337.799	1.14
338.17	1.1
338.542	1.05
338.913	1.09
339.284	1.14
339.656	1.12
340.027	1.11
340.398	1.16
340.769	1.09
341.141	1.21
341.512	1.11
341.883	1.23
342.254	1.11
342.625	1.17
342.996	1.21
343.367	1.14
343.738	1.2
344.108	1.14
344.479	1.26
344.85	1.09
345.221	1.27
345.591	1.12
345.962	1.25
346.333	1.18
346.703	1.12
347.074	1.28
347.444	1.18
347.815	1.24
348.185	1.21
348.556	1.21
348.926	1.24
349.296	1.18
349.666	1.19
350.037	1.14
350.407	1.15
350.777	1.2
351.147	1.3
351.517	1.31
351.887	1.26
352.257	1.29
352.627	1.16
352.997	1.29
353.367	1.31
353.737	1.33
354.106	1.42
354.476	1.35
354.846	1.34
355.216	1.36
355.585	1.37
355.955	1.47
356.324	1.42
356.694	1.39
357.063	1.35
357.433	1.36
357.802	1.5
358.171	1.47
358.541	1.44
358.91	1.46
359.279	1.53
359.648	1.49
360.017	1.58
360.387	1.54
360.756	1.4
361.125	1.45
361.494	1.51
361.863	1.54
362.231	1.46
362.6	1.44
362.969	1.53
363.338	1.66
363.707	1.74
364.075	1.61
364.444	1.5
364.813	1.53
365.181	1.52
365.55	1.51
365.918	1.64
366.287	1.55
366.655	1.62
367.024	1.74
367.392	1.64
367.76	1.62
368.128	1.77
368.497	1.56
368.865	1.57
369.233	1.5
369.601	1.6
369.969	1.46
370.337	1.53
370.705	1.52
371.073	1.49
371.441	1.42
371.809	1.52
372.177	1.43
372.544	1.74
372.912	1.56
373.28	1.5
373.647	1.65
374.015	1.84
374.383	1.83
374.75	1.51
375.118	1.61
375.485	1.68
375.853	1.92
376.22	1.51
376.587	1.64
376.955	1.65
377.322	1.82
377.689	1.73
378.056	1.53
378.423	1.61
378.79	1.62
379.157	1.76
379.524	1.58
379.891	1.57
380.258	1.74
380.625	1.56
380.992	1.49
381.359	1.64
381.726	1.99
382.092	1.41
382.459	1.55
382.826	1.55
383.192	1.56
383.559	1.57
383.925	1.6
384.292	1.47
384.658	1.94
385.025	1.65
385.391	1.89
385.757	1.82
386.123	1.57
386.49	1.49
386.856	1.7
387.222	1.61
387.588	1.5
387.954	1.83
388.32	1.79
388.686	1.59
389.052	1.58
389.418	1.64
389.784	1.6
390.15	1.7
390.515	1.49
390.881	1.66
391.247	1.53
391.613	1.79
391.978	1.58
392.344	1.74
392.709	1.64
393.075	1.83
393.44	1.61
393.806	1.7
394.171	1.53
394.536	1.48
394.902	1.76
395.267	1.66
395.632	1.47
395.997	1.47
396.362	1.54
396.727	1.66
397.092	1.54
397.457	1.64
397.822	1.51
398.187	1.72
398.552	1.44
398.917	1.62
399.282	1.47
399.646	1.51
400.011	1.74
400.376	1.49
400.74	1.5
401.105	1.48
401.47	1.65
401.834	1.7
402.199	1.52
402.563	1.51
402.927	1.58
403.292	1.66
403.656	1.52
404.02	1.56
404.384	1.86
404.749	1.61
405.113	1.7
405.477	1.74
405.841	1.56
406.205	1.68
406.569	1.53
406.933	1.64
407.296	1.62
407.66	1.66
408.024	1.53
408.388	1.68
408.752	1.67
409.115	1.67
409.479	1.62
409.842	1.53
410.206	1.59
410.569	1.52
410.933	1.9
411.296	1.47
411.66	1.59
412.023	1.59
412.386	1.56
412.749	1.45
413.113	1.61
413.476	1.48
413.839	1.42
414.202	1.47
414.565	1.4
414.928	1.58
415.291	1.48
415.654	1.44
416.017	1.37
416.38	1.55
416.742	1.37
417.105	1.54
417.468	1.52
417.83	1.63
418.193	1.77
418.556	1.4
418.918	1.48
419.281	1.38
419.643	1.56
420.005	1.48
420.368	1.46
420.73	1.5
421.092	1.6
421.455	1.65
421.817	1.48
422.179	1.53
422.541	1.56
422.903	1.76
423.265	1.65
423.627	1.6
423.989	1.65
424.351	1.43
424.713	1.56
425.075	1.5
425.436	1.54
425.798	1.52
426.16	1.58
426.521	1.52
426.883	1.5
427.245	1.54
427.606	1.41
427.967	1.49
428.329	1.6
428.69	1.7
429.052	1.47
429.413	1.57
429.774	1.51
430.135	1.59
430.497	1.64
430.858	1.51
431.219	1.54
431.58	1.52
431.941	1.44
432.302	1.46
432.663	1.45
433.024	1.6
433.384	1.47
433.745	1.49
434.106	1.59
434.467	1.5
434.827	1.47
435.188	1.43
435.548	1.69
435.909	1.42
436.269	1.58
436.63	1.42
436.99	1.45
437.351	1.4
437.711	1.4
438.071	1.36
438.431	1.38
438.792	1.44
439.152	1.41
439.512	1.36
439.872	1.39
440.232	1.44
440.592	1.41
440.952	1.5
441.312	1.43
441.671	1.38
442.031	1.38
442.391	1.36
442.751	1.39
443.11	1.48
443.47	1.29
443.83	1.31
444.189	1.33
444.549	1.31
444.908	1.32
445.267	1.35
445.627	1.33
445.986	1.3
446.345	1.28
446.705	1.3
447.064	1.27
447.423	1.31
447.782	1.32
448.141	1.26
448.5	1.21
448.859	1.27
449.218	1.24
449.577	1.23
449.936	1.23
450.295	1.22
450.653	1.24
451.012	1.23
451.371	1.2
451.729	1.21
452.088	1.23
452.447	1.17
452.805	1.18
453.163	1.22
453.522	1.15
453.88	1.14
454.239	1.14
454.597	1.11
454.955	1.11
455.313	1.1
455.671	1.1
456.029	1.09
456.388	1.06
456.746	1.07
457.104	1.06
457.461	1.01
457.819	1.03
458.177	1.02
458.535	0.98
458.893	0.98
459.25	0.98
459.608	0.98
459.966	0.96
460.323	0.92
460.681	0.93
461.038	0.91
461.396	0.9
461.753	0.89
462.111	0.88
462.468	0.85
462.825	0.85
463.182	0.85
463.54	0.82
463.897	0.82
464.254	0.83
464.611	0.79
464.968	0.78
465.325	0.78
465.682	0.77
466.039	0.76
466.395	0.75
466.752	0.75
467.109	0.73
467.466	0.73
467.822	0.72
468.179	0.7
468.535	0.69
468.892	0.68
469.248	0.66
469.605	0.65
469.961	0.65
470.318	0.65
470.674	0.64
471.03	0.62
471.386	0.61
471.743	0.6
472.099	0.6
472.455	0.58
472.811	0.57
473.167	0.55
473.523	0.55
473.879	0.54
474.235	0.54
474.59	0.53
474.946	0.51
475.302	0.51
475.657	0.5
476.013	0.48
476.369	0.47
476.724	0.48
477.08	0.47
477.435	0.46
477.791	0.46
478.146	0.44
478.501	0.44
478.857	0.43
479.212	0.42
479.567	0.42
479.922	0.4
480.277	0.4
480.632	0.39
480.987	0.39
481.342	0.38
481.697	0.37
482.052	0.36
482.407	0.35
482.762	0.35
483.116	0.35
483.471	0.33
483.826	0.32
484.18	0.33
484.535	0.32
484.89	0.31
485.244	0.31
485.598	0.31
485.953	0.3
486.307	0.3
486.661	0.3
487.016	0.29
487.37	0.29
487.724	0.28
488.078	0.28
488.432	0.27
488.786	0.27
489.14	0.26
489.494	0.26
489.848	0.25
490.202	0.25
490.556	0.24
490.91	0.24
491.263	0.24
491.617	0.24
491.971	0.23
492.324	0.23
492.678	0.22
493.031	0.23
493.385	0.22
493.738	0.22
494.091	0.22
494.445	0.21
494.798	0.2
495.151	0.2
495.504	0.2
495.857	0.2
496.21	0.2
496.564	0.18
496.916	0.19
497.269	0.18
497.622	0.19
497.975	0.18
498.328	0.19
498.681	0.18
499.033	0.18
499.386	0.18
499.739	0.17
500.091	0.17
500.444	0.17
500.796	0.17
501.149	0.17
501.501	0.17
501.854	0.16
502.206	0.16
502.558	0.16
502.91	0.16
503.263	0.15
503.615	0.15
503.967	0.15
504.319	0.16
504.671	0.14
505.023	0.15
505.375	0.14
505.726	0.14
506.078	0.14
506.43	0.14
506.782	0.13
507.133	0.14
507.485	0.15
507.837	0.15
508.188	0.14
508.54	0.14
508.891	0.14
509.243	0.13
509.594	0.14
509.945	0.13
510.296	0.13
510.648	0.14
510.999	0.12
511.35	0.13
511.701	0.13
512.052	0.13
512.403	0.14
512.754	0.12
513.105	0.13
513.456	0.13
513.807	0.13
514.157	0.13
514.508	0.12
514.859	0.12
515.209	0.12
515.56	0.12
515.91	0.12
516.261	0.13
516.611	0.12
516.962	0.12
517.312	0.12
517.662	0.12
518.013	0.12
518.363	0.12
518.713	0.12
519.063	0.12
519.413	0.12
519.763	0.12
520.113	0.12
520.463	0.12
520.813	0.12
521.163	0.12
521.512	0.11
521.862	0.12
522.212	0.12
522.562	0.12
522.911	0.12
523.261	0.11
523.61	0.11
523.96	0.12
524.309	0.12
524.658	0.12
525.008	0.11
525.357	0.11
525.706	0.12
526.056	0.11
526.405	0.12
526.754	0.11
527.103	0.11
527.452	0.11
527.801	0.11
528.15	0.11
528.499	0.11
528.847	0.11
529.196	0.12
529.545	0.12
529.893	0.11
530.242	0.12
530.591	0.12
530.939	0.13
531.288	0.12
531.636	0.12
531.985	0.12
532.333	0.12
532.681	0.12
533.029	0.12
533.378	0.12
533.726	0.12
534.074	0.12
534.422	0.11
534.77	0.12
535.118	0.12
535.466	0.12
535.814	0.11
536.162	0.12
536.509	0.12
536.857	0.12
537.205	0.12
537.552	0.12
537.9	0.12
538.248	0.11
538.595	0.12
538.943	0.12
539.29	0.12
539.637	0.12
539.985	0.12
540.332	0.12
540.679	0.11
541.026	0.11
541.373	0.12
541.721	0.11
542.068	0.11
542.415	0.11
542.762	0.1
543.108	0.1
543.455	0.09
543.802	0.1
544.149	0.1
544.496	0.11
544.842	0.1
545.189	0.09
545.535	0.1
545.882	0.1
546.228	0.1
546.575	0.1
546.921	0.1
547.267	0.1
547.614	0.1
547.96	0.11
548.306	0.1
548.652	0.1
548.998	0.11
549.344	0.1
549.69	0.11
550.036	0.1
550.382	0.1
550.728	0.1
551.074	0.11
551.42	0.1
551.765	0.11
552.111	0.11
552.457	0.12
552.802	0.11
553.148	0.11
553.493	0.11
553.839	0.12
554.184	0.11
554.529	0.11
554.875	0.12
555.22	0.12
555.565	0.12
555.91	0.12
556.255	0.12
556.6	0.12
556.945	0.11
557.29	0.11
557.635	0.11
557.98	0.11
558.325	0.11
558.67	0.11
559.014	0.11
559.359	0.11
559.704	0.11
560.048	0.11
560.393	0.11
560.737	0.11
561.082	0.11
561.426	0.1
561.77	0.1
562.115	0.1
562.459	0.1
562.803	0.1
563.147	0.11
563.491	0.1
563.835	0.11
564.179	0.11
564.523	0.1
564.867	0.1
565.211	0.11
565.555	0.11
565.899	0.11
566.242	0.11
566.586	0.1
566.93	0.11
567.273	0.11
567.617	0.1
567.96	0.11
568.304	0.12
568.647	0.1
568.99	0.11
569.334	0.11
569.677	0.11
570.02	0.12
570.363	0.11
570.706	0.1
571.049	0.11
571.392	0.11
571.735	0.11
572.078	0.11
572.421	0.12
572.764	0.1
573.106	0.11
573.449	0.11
573.792	0.11
574.134	0.1
574.477	0.11
574.819	0.11
575.162	0.1
575.504	0.1
575.847	0.11
576.189	0.11
576.531	0.11
576.873	0.11
577.215	0.11
577.558	0.11
577.9	0.11
578.242	0.11
578.584	0.11
578.926	0.11
579.267	0.1
579.609	0.11
579.951	0.11
580.293	0.11
580.634	0.11
580.976	0.1
581.318	0.1
581.659	0.11
582.001	0.1
582.342	0.11
582.683	0.11
583.025	0.1
583.366	0.11
583.707	0.1
584.049	0.11
584.39	0.11
584.731	0.1
585.072	0.09
585.413	0.11
585.754	0.11
586.095	0.11
586.435	0.11
586.776	0.11
587.117	0.11
587.458	0.11
587.798	0.1
588.139	0.11
588.48	0.1
588.82	0.1
589.161	0.11
589.501	0.1
589.841	0.11
590.182	0.1
590.522	0.1
590.862	0.1
591.202	0.1
591.542	0.1
591.882	0.1
592.222	0.1
592.562	0.1
592.902	0.1
593.242	0.1
593.582	0.1
593.922	0.1
594.261	0.1
594.601	0.1
594.941	0.1
595.28	0.1
595.62	0.1
595.959	0.11
596.299	0.1
596.638	0.1
596.977	0.1
597.317	0.12
597.656	0.11
597.995	0.11
598.334	0.11
598.673	0.11
599.012	0.1
599.351	0.1
599.69	0.1
600.029	0.1
600.368	0.1
600.707	0.1
601.046	0.1
601.384	0.11
601.723	0.1
602.061	0.1
602.4	0.11
602.738	0.1
603.077	0.1
603.415	0.1
603.754	0.1
604.092	0.1
604.43	0.1
604.768	0.1
605.107	0.11
605.445	0.1
605.783	0.1
606.121	0.1
606.459	0.11
606.796	0.1
607.134	0.1
607.472	0.1
607.81	0.1
608.148	0.11
608.485	0.11
608.823	0.1
609.16	0.1
609.498	0.1
609.835	0.1
610.173	0.1
610.51	0.1
610.847	0.1
611.185	0.11
611.522	0.11
611.859	0.11
612.196	0.11
612.533	0.11
612.87	0.11
613.207	0.11
613.544	0.11
613.881	0.12
614.217	0.11
614.554	0.11
614.891	0.11
615.228	0.11
615.564	0.11
615.901	0.1
616.237	0.11
616.574	0.11
616.91	0.12
617.246	0.1
617.583	0.11
617.919	0.11
618.255	0.12
618.591	0.11
618.927	0.11
619.263	0.12
619.599	0.12
619.935	0.12
620.271	0.11
620.607	0.11
620.943	0.11
621.279	0.11
621.614	0.11
621.95	0.11
622.286	0.1
622.621	0.1
622.957	0.1
623.292	0.1
623.627	0.1
623.963	0.09
624.298	0.1
624.633	0.1
624.968	0.1
625.304	0.1
625.639	0.09
625.974	0.1
626.309	0.1
626.644	0.1
626.979	0.1
627.313	0.09
627.648	0.09
627.983	0.09
628.318	0.09
628.652	0.09
628.987	0.09
629.321	0.1
629.656	0.09
629.99	0.09
630.325	0.1
630.659	0.09
630.993	0.09
631.327	0.1
631.662	0.09
631.996	0.1
632.33	0.09
632.664	0.1
632.998	0.08
633.332	0.09
633.666	0.09
633.999	0.09
634.333	0.08
634.667	0.09
635.001	0.09
635.334	0.08
635.668	0.09
636.001	0.09
636.335	0.09
636.668	0.09
637.001	0.09
637.335	0.09
637.668	0.09
638.001	0.08
638.334	0.08
638.668	0.08
639.001	0.09
639.334	0.08
639.667	0.08
639.999	0.08
640.332	0.08
640.665	0.07
640.998	0.08
641.331	0.08
641.663	0.07
641.996	0.08
642.328	0.08
642.661	0.08
642.993	0.08
643.326	0.08
643.658	0.07
643.99	0.08
644.323	0.08
644.655	0.08
644.987	0.08
645.319	0.08
645.651	0.08
645.983	0.08
646.315	0.08
646.647	0.08
646.979	0.09
647.31	0.09
647.642	0.08
647.974	0.08
648.305	0.09
648.637	0.09
648.968	0.09
649.3	0.09
649.631	0.1
649.963	0.08
650.294	0.09
650.625	0.09
650.957	0.09
651.288	0.09
651.619	0.09
651.95	0.09
652.281	0.09
652.612	0.09
652.943	0.1
653.274	0.09
653.604	0.09
653.935	0.09
654.266	0.09
654.596	0.09
654.927	0.08
655.258	0.09
655.588	0.1
655.918	0.09
656.249	0.07
656.579	0.09
656.909	0.09
657.24	0.08
657.57	0.1
657.9	0.09
658.23	0.09
658.56	0.1
658.89	0.09
659.22	0.08
659.55	0.09
659.88	0.1
660.209	0.09
660.539	0.1
660.869	0.1
661.198	0.1
661.528	0.09
661.857	0.1
662.187	0.1
662.516	0.1
662.846	0.1
663.175	0.09
663.504	0.09
663.833	0.09
664.163	0.09
664.492	0.08
664.821	0.09
665.15	0.09
665.479	0.09
665.807	0.09
666.136	0.09
666.465	0.09
666.794	0.08
667.122	0.08
667.451	0.08
667.78	0.08
668.108	0.09
668.437	0.08
668.765	0.09
669.093	0.08
669.422	0.08
669.75	0.08
670.078	0.09
670.406	0.09
670.734	0.09
671.062	0.09
671.39	0.09
671.718	0.08
672.046	0.08
672.374	0.08
672.702	0.08
673.029	0.08
673.357	0.09
673.685	0.1
674.012	0.09
674.34	0.08
674.667	0.09
674.995	0.09
675.322	0.09
675.649	0.08
675.977	0.09
676.304	0.09
676.631	0.09
676.958	0.09
677.285	0.08
677.612	0.08
677.939	0.08
678.266	0.09
678.593	0.08
678.92	0.08
679.246	0.08
679.573	0.08
679.9	0.08
680.226	0.08
680.553	0.08
680.879	0.08
681.206	0.08
681.532	0.08
681.858	0.08
682.184	0.07
682.511	0.08
682.837	0.07
683.163	0.08
683.489	0.08
683.815	0.07
684.141	0.07
684.467	0.08
684.793	0.08
685.118	0.07
685.444	0.07
685.77	0.08
686.095	0.07
686.421	0.07
686.746	0.08
687.072	0.08
687.397	0.08
687.723	0.08
688.048	0.09
688.373	0.08
688.698	0.08
689.023	0.08
689.349	0.07
689.674	0.08
689.999	0.08
690.323	0.07
690.648	0.07
690.973	0.07
691.298	0.07
691.623	0.07
691.947	0.08
692.272	0.07
692.596	0.08
692.921	0.08
693.245	0.07
693.57	0.08
693.894	0.07
694.218	0.07
694.543	0.07
694.867	0.07
695.191	0.06
695.515	0.07
695.839	0.07
696.163	0.07
696.487	0.07
696.811	0.07
697.135	0.07
697.458	0.07
697.782	0.07
698.106	0.07
698.429	0.07
698.753	0.07
699.076	0.07
699.4	0.07
699.723	0.07
700.046	0.06
700.37	0.08
700.693	0.07
701.016	0.07
701.339	0.07
701.662	0.07
701.985	0.07
702.308	0.07
702.631	0.07
702.954	0.08
703.277	0.07
703.599	0.07
703.922	0.06
704.245	0.06
704.567	0.06
704.89	0.06
705.212	0.06
705.535	0.06
705.857	0.06
706.179	0.06
706.502	0.06
706.824	0.05
707.146	0.06
707.468	0.07
707.79	0.06
708.112	0.06
708.434	0.06
708.756	0.06
709.078	0.06
709.399	0.06
709.721	0.06
710.043	0.07
710.364	0.07
710.686	0.06
711.007	0.06
711.329	0.07
711.65	0.07
711.972	0.06
712.293	0.07
712.614	0.07
712.935	0.07
713.256	0.07
713.577	0.07
713.898	0.06
714.219	0.06
714.54	0.06
714.861	0.06
715.182	0.06
715.503	0.06
715.823	0.06
716.144	0.06
716.464	0.06
716.785	0.05
717.105	0.05
717.426	0.05
717.746	0.05
718.066	0.05
718.387	0.06
718.707	0.05
719.027	0.05
719.347	0.05
719.667	0.05
719.987	0.05
720.307	0.05
720.627	0.04
720.947	0.05
721.266	0.05
721.586	0.04
721.906	0.05
722.225	0.04
722.545	0.05
722.864	0.04
723.184	0.05
723.503	0.05
723.823	0.05
724.142	0.04
724.461	0.05
724.78	0.05
725.099	0.05
725.418	0.05
725.737	0.04
726.056	0.05
726.375	0.04
726.694	0.05
