Data from 12-12-AQDScycling_Absorbance__166__00166.txt Node

Date: Tue Dec 12 11:39:02 EST 2023
User: kyuminlee
Spectrometer: FLMS00943
Trigger mode: 0
Integration Time (sec): 1.000000E-1
Scans to average: 1
Electric dark correction enabled: true
Nonlinearity correction enabled: false
Boxcar width: 0
XAxis mode: Wavelengths
Number of Pixels in Spectrum: 2048
>>>>>Begin Spectral Data<<<<<
179.651	0.18
180.037	0.18
180.424	0.18
180.81	-0.24
181.197	0.07
181.583	-0.07
181.97	-0.5
182.356	-0
182.743	-0
183.129	0.82
183.515	0.05
183.901	-2.32
184.288	0.24
184.674	-0
185.06	-0
185.446	-0
185.832	-0
186.218	0.09
186.604	-0
186.99	-0
187.376	-0
187.762	0.03
188.148	-0
188.534	0.2
188.92	0.26
189.305	0.13
189.691	0.21
190.077	0.19
190.463	0.07
190.848	0.1
191.234	0.1
191.619	0.11
192.005	0.26
192.391	0.32
192.776	0.22
193.161	0.29
193.547	0.2
193.932	0.16
194.318	0.03
194.703	0.29
195.088	0.36
195.473	0.41
195.859	0.25
196.244	0.34
196.629	0.07
197.014	0.12
197.399	0.14
197.784	0.2
198.169	0.31
198.554	0.4
198.939	0.05
199.324	0.16
199.709	0.15
200.094	0.13
200.478	0.25
200.863	0.32
201.248	0.22
201.633	0.16
202.017	0.16
202.402	0.65
202.787	0.16
203.171	0.24
203.556	0.23
203.94	0.3
204.325	0.21
204.709	0.25
205.093	0.22
205.478	0.36
205.862	0.15
206.246	0.17
206.631	0.22
207.015	0.27
207.399	0.24
207.783	0.14
208.167	0.14
208.551	0.24
208.935	0.2
209.319	0.2
209.703	0.11
210.087	0.45
210.471	0.14
210.855	0.38
211.239	0.19
211.623	0.27
212.007	0.34
212.39	0.21
212.774	0.23
213.158	0.15
213.541	0.21
213.925	0.24
214.309	0.56
214.692	0.3
215.076	0.18
215.459	0.18
215.842	0.1
216.226	0.43
216.609	0.38
216.993	0.15
217.376	0.5
217.759	0.35
218.142	0.48
218.525	0.45
218.909	0.33
219.292	0.32
219.675	0.44
220.058	0.56
220.441	0.54
220.824	0.5
221.207	0.82
221.59	0.51
221.973	0.51
222.355	0.59
222.738	0.83
223.121	0.7
223.504	0.57
223.886	0.66
224.269	0.75
224.652	0.85
225.034	0.9
225.417	1.14
225.799	1.22
226.182	0.9
226.564	0.82
226.947	0.78
227.329	0.86
227.711	1.11
228.094	0.88
228.476	0.92
228.858	0.83
229.24	0.89
229.623	0.95
230.005	0.94
230.387	0.91
230.769	0.9
231.151	0.9
231.533	0.96
231.915	0.93
232.297	1.21
232.679	1.09
233.061	1.03
233.442	1.06
233.824	1.05
234.206	1.13
234.588	1.08
234.969	1.09
235.351	1.11
235.733	0.98
236.114	1.1
236.496	1.28
236.877	1.2
237.259	1.07
237.64	1.08
238.022	1.25
238.403	1.02
238.784	1.12
239.165	1.06
239.547	1.24
239.928	1.21
240.309	1.13
240.69	1.16
241.071	1.25
241.452	1.18
241.834	1.22
242.215	1.16
242.595	1.04
242.976	1.05
243.357	1.21
243.738	1.06
244.119	1.38
244.5	1.21
244.881	1.26
245.261	1.12
245.642	1.17
246.023	1.18
246.403	1.25
246.784	1.29
247.164	1.31
247.545	1.34
247.925	1.33
248.306	1.39
248.686	1.42
249.067	1.35
249.447	1.33
249.827	1.48
250.207	1.31
250.588	1.31
250.968	1.42
251.348	1.43
251.728	1.48
252.108	1.4
252.488	1.45
252.868	1.41
253.248	1.4
253.628	1.39
254.008	1.73
254.388	1.25
254.768	1.35
255.147	1.31
255.527	1.31
255.907	1.32
256.287	1.51
256.666	1.64
257.046	1.73
257.425	1.48
257.805	1.32
258.184	1.35
258.564	1.51
258.943	1.36
259.323	1.49
259.702	1.63
260.081	1.58
260.461	1.42
260.84	1.57
261.219	1.57
261.598	1.47
261.977	1.63
262.356	1.54
262.736	1.64
263.115	1.59
263.494	1.51
263.873	1.45
264.251	1.36
264.63	1.66
265.009	1.68
265.388	1.5
265.767	1.34
266.145	1.55
266.524	1.44
266.903	1.52
267.281	1.47
267.66	1.53
268.039	1.55
268.417	1.6
268.796	1.47
269.174	1.5
269.552	1.37
269.931	1.46
270.309	1.48
270.687	1.49
271.066	1.77
271.444	1.36
271.822	1.71
272.2	1.52
272.578	1.5
272.956	1.51
273.334	1.35
273.712	1.42
274.09	1.47
274.468	1.35
274.846	1.39
275.224	1.42
275.602	1.63
275.98	1.76
276.357	1.74
276.735	1.6
277.113	1.53
277.49	1.34
277.868	1.43
278.246	1.59
278.623	1.35
279.001	1.31
279.378	1.49
279.756	1.44
280.133	2
280.51	1.54
280.888	1.45
281.265	1.37
281.642	1.53
282.019	1.56
282.396	1.6
282.773	1.35
283.151	1.47
283.528	1.54
283.905	1.52
284.282	1.68
284.659	1.59
285.035	1.27
285.412	1.33
285.789	1.7
286.166	1.54
286.543	1.62
286.919	1.6
287.296	1.43
287.673	1.76
288.049	1.57
288.426	1.58
288.802	1.77
289.179	1.5
289.555	1.61
289.932	1.58
290.308	1.44
290.684	1.52
291.061	1.39
291.437	1.57
291.813	1.43
292.189	1.34
292.565	1.36
292.942	1.33
293.318	1.45
293.694	1.5
294.07	1.41
294.446	1.56
294.822	1.58
295.197	1.38
295.573	1.61
295.949	1.41
296.325	1.53
296.701	1.46
297.076	1.61
297.452	1.66
297.828	1.53
298.203	1.61
298.579	1.44
298.954	1.45
299.33	1.41
299.705	1.44
300.081	1.55
300.456	1.48
300.831	1.42
301.206	1.45
301.582	1.57
301.957	1.37
302.332	1.46
302.707	1.37
303.082	1.3
303.457	1.32
303.832	1.34
304.207	1.43
304.582	1.47
304.957	1.32
305.332	1.44
305.707	1.36
306.082	1.41
306.456	1.44
306.831	1.3
307.206	1.38
307.58	1.29
307.955	1.31
308.33	1.34
308.704	1.32
309.079	1.24
309.453	1.34
309.828	1.25
310.202	1.22
310.576	1.25
310.951	1.31
311.325	1.34
311.699	1.22
312.073	1.22
312.447	1.28
312.821	1.25
313.196	1.25
313.57	1.16
313.944	1.23
314.317	1.21
314.691	1.38
315.065	1.22
315.439	1.34
315.813	1.26
316.187	1.24
316.56	1.28
316.934	1.28
317.308	1.29
317.681	1.26
318.055	1.24
318.428	1.25
318.802	1.25
319.175	1.25
319.549	1.31
319.922	1.2
320.295	1.31
320.669	1.42
321.042	1.28
321.415	1.39
321.788	1.31
322.162	1.26
322.535	1.32
322.908	1.26
323.281	1.29
323.654	1.31
324.027	1.31
324.4	1.39
324.773	1.28
325.145	1.34
325.518	1.24
325.891	1.25
326.264	1.32
326.636	1.31
327.009	1.26
327.382	1.29
327.754	1.29
328.127	1.32
328.499	1.31
328.872	1.39
329.244	1.4
329.616	1.29
329.989	1.27
330.361	1.31
330.733	1.3
331.106	1.26
331.478	1.4
331.85	1.31
332.222	1.26
332.594	1.44
332.966	1.3
333.338	1.42
333.71	1.36
334.082	1.45
334.454	1.37
334.826	1.31
335.197	1.41
335.569	1.37
335.941	1.23
336.312	1.43
336.684	1.39
337.056	1.28
337.427	1.38
337.799	1.38
338.17	1.34
338.542	1.31
338.913	1.43
339.284	1.49
339.656	1.41
340.027	1.35
340.398	1.42
340.769	1.33
341.141	1.41
341.512	1.45
341.883	1.4
342.254	1.43
342.625	1.39
342.996	1.34
343.367	1.4
343.738	1.46
344.108	1.37
344.479	1.62
344.85	1.35
345.221	1.4
345.591	1.26
345.962	1.33
346.333	1.3
346.703	1.29
347.074	1.31
347.444	1.29
347.815	1.32
348.185	1.35
348.556	1.27
348.926	1.34
349.296	1.3
349.666	1.39
350.037	1.21
350.407	1.28
350.777	1.27
351.147	1.28
351.517	1.29
351.887	1.36
352.257	1.4
352.627	1.36
352.997	1.33
353.367	1.35
353.737	1.46
354.106	1.39
354.476	1.33
354.846	1.4
355.216	1.37
355.585	1.4
355.955	1.3
356.324	1.5
356.694	1.4
357.063	1.43
357.433	1.43
357.802	1.36
358.171	1.41
358.541	1.39
358.91	1.44
359.279	1.43
359.648	1.39
360.017	1.49
360.387	1.46
360.756	1.4
361.125	1.47
361.494	1.53
361.863	1.47
362.231	1.43
362.6	1.46
362.969	1.5
363.338	1.35
363.707	1.58
364.075	1.53
364.444	1.38
364.813	1.52
365.181	1.39
365.55	1.44
365.918	1.47
366.287	1.43
366.655	1.67
367.024	1.55
367.392	1.49
367.76	1.55
368.128	1.54
368.497	1.47
368.865	1.48
369.233	1.43
369.601	1.44
369.969	1.5
370.337	1.66
370.705	1.48
371.073	1.54
371.441	1.51
371.809	1.45
372.177	1.42
372.544	1.48
372.912	1.66
373.28	1.49
373.647	1.53
374.015	1.64
374.383	1.73
374.75	1.89
375.118	1.56
375.485	1.56
375.853	1.81
376.22	1.57
376.587	1.66
376.955	1.54
377.322	1.65
377.689	1.59
378.056	1.46
378.423	1.51
378.79	1.57
379.157	1.72
379.524	1.5
379.891	1.46
380.258	1.75
380.625	1.59
380.992	1.62
381.359	1.59
381.726	1.73
382.092	1.56
382.459	1.52
382.826	1.56
383.192	1.73
383.559	1.68
383.925	1.58
384.292	1.55
384.658	1.64
385.025	1.64
385.391	1.63
385.757	1.72
386.123	1.69
386.49	1.51
386.856	1.68
387.222	1.68
387.588	1.54
387.954	1.7
388.32	1.72
388.686	1.6
389.052	1.83
389.418	1.59
389.784	1.81
390.15	1.6
390.515	1.4
390.881	1.73
391.247	1.5
391.613	1.64
391.978	1.54
392.344	1.67
392.709	1.63
393.075	1.65
393.44	1.65
393.806	1.68
394.171	1.71
394.536	1.56
394.902	1.6
395.267	1.57
395.632	1.54
395.997	1.56
396.362	1.51
396.727	1.61
397.092	1.65
397.457	1.65
397.822	1.55
398.187	1.68
398.552	1.58
398.917	1.78
399.282	1.45
399.646	1.49
400.011	1.64
400.376	1.59
400.74	1.61
401.105	1.48
401.47	1.65
401.834	1.58
402.199	1.52
402.563	1.51
402.927	1.54
403.292	1.65
403.656	1.45
404.02	1.59
404.384	1.77
404.749	1.53
405.113	1.58
405.477	1.77
405.841	1.48
406.205	1.58
406.569	1.42
406.933	1.58
407.296	1.53
407.66	1.6
408.024	1.57
408.388	1.56
408.752	1.54
409.115	1.49
409.479	1.53
409.842	1.45
410.206	1.48
410.569	1.47
410.933	1.44
411.296	1.42
411.66	1.6
412.023	1.42
412.386	1.41
412.749	1.36
413.113	1.55
413.476	1.42
413.839	1.43
414.202	1.54
414.565	1.36
414.928	1.37
415.291	1.41
415.654	1.5
416.017	1.47
416.38	1.41
416.742	1.38
417.105	1.34
417.468	1.37
417.83	1.35
418.193	1.46
418.556	1.44
418.918	1.34
419.281	1.44
419.643	1.6
420.005	1.49
420.368	1.58
420.73	1.34
421.092	1.53
421.455	1.46
421.817	1.32
422.179	1.29
422.541	1.45
422.903	1.57
423.265	1.43
423.627	1.46
423.989	1.39
424.351	1.51
424.713	1.42
425.075	1.48
425.436	1.41
425.798	1.33
426.16	1.44
426.521	1.4
426.883	1.39
427.245	1.35
427.606	1.31
427.967	1.3
428.329	1.39
428.69	1.44
429.052	1.32
429.413	1.33
429.774	1.38
430.135	1.34
430.497	1.43
430.858	1.35
431.219	1.43
431.58	1.28
431.941	1.35
432.302	1.35
432.663	1.29
433.024	1.46
433.384	1.3
433.745	1.3
434.106	1.39
434.467	1.29
434.827	1.3
435.188	1.35
435.548	1.39
435.909	1.31
436.269	1.43
436.63	1.25
436.99	1.35
437.351	1.22
437.711	1.29
438.071	1.25
438.431	1.24
438.792	1.27
439.152	1.23
439.512	1.25
439.872	1.23
440.232	1.32
440.592	1.25
440.952	1.24
441.312	1.24
441.671	1.21
442.031	1.18
442.391	1.16
442.751	1.23
443.11	1.22
443.47	1.2
443.83	1.17
444.189	1.16
444.549	1.17
444.908	1.16
445.267	1.16
445.627	1.17
445.986	1.11
446.345	1.09
446.705	1.09
447.064	1.16
447.423	1.1
447.782	1.1
448.141	1.09
448.5	1.08
448.859	1.03
449.218	1.06
449.577	1.1
449.936	1.08
450.295	1.07
450.653	1.04
451.012	1.02
451.371	1.02
451.729	1.01
452.088	1.02
452.447	1.02
452.805	1.04
453.163	1
453.522	1
453.88	0.97
454.239	0.99
454.597	0.97
454.955	0.95
455.313	0.94
455.671	0.93
456.029	0.94
456.388	0.92
456.746	0.91
457.104	0.88
457.461	0.88
457.819	0.87
458.177	0.86
458.535	0.85
458.893	0.85
459.25	0.84
459.608	0.84
459.966	0.8
460.323	0.8
460.681	0.79
461.038	0.79
461.396	0.77
461.753	0.76
462.111	0.77
462.468	0.74
462.825	0.73
463.182	0.73
463.54	0.72
463.897	0.72
464.254	0.71
464.611	0.69
464.968	0.68
465.325	0.68
465.682	0.66
466.039	0.66
466.395	0.64
466.752	0.64
467.109	0.63
467.466	0.62
467.822	0.62
468.179	0.6
468.535	0.6
468.892	0.59
469.248	0.57
469.605	0.57
469.961	0.57
470.318	0.57
470.674	0.55
471.03	0.54
471.386	0.54
471.743	0.54
472.099	0.51
472.455	0.51
472.811	0.51
473.167	0.49
473.523	0.48
473.879	0.48
474.235	0.47
474.59	0.47
474.946	0.46
475.302	0.46
475.657	0.45
476.013	0.44
476.369	0.42
476.724	0.43
477.08	0.42
477.435	0.41
477.791	0.41
478.146	0.41
478.501	0.39
478.857	0.39
479.212	0.39
479.567	0.38
479.922	0.38
480.277	0.37
480.632	0.36
480.987	0.36
481.342	0.36
481.697	0.35
482.052	0.34
482.407	0.34
482.762	0.33
483.116	0.32
483.471	0.32
483.826	0.31
484.18	0.31
484.535	0.3
484.89	0.3
485.244	0.3
485.598	0.3
485.953	0.29
486.307	0.29
486.661	0.29
487.016	0.28
487.37	0.28
487.724	0.28
488.078	0.27
488.432	0.27
488.786	0.27
489.14	0.26
489.494	0.25
489.848	0.25
490.202	0.24
490.556	0.25
490.91	0.24
491.263	0.24
491.617	0.24
491.971	0.24
492.324	0.23
492.678	0.23
493.031	0.23
493.385	0.22
493.738	0.22
494.091	0.22
494.445	0.22
494.798	0.22
495.151	0.21
495.504	0.22
495.857	0.21
496.21	0.21
496.564	0.21
496.916	0.22
497.269	0.2
497.622	0.21
497.975	0.21
498.328	0.21
498.681	0.2
499.033	0.2
499.386	0.19
499.739	0.19
500.091	0.19
500.444	0.19
500.796	0.19
501.149	0.18
501.501	0.18
501.854	0.18
502.206	0.18
502.558	0.19
502.91	0.19
503.263	0.18
503.615	0.18
503.967	0.17
504.319	0.18
504.671	0.18
505.023	0.17
505.375	0.17
505.726	0.17
506.078	0.17
506.43	0.17
506.782	0.17
507.133	0.17
507.485	0.17
507.837	0.17
508.188	0.17
508.54	0.16
508.891	0.17
509.243	0.16
509.594	0.17
509.945	0.16
510.296	0.16
510.648	0.17
510.999	0.16
511.35	0.16
511.701	0.15
512.052	0.17
512.403	0.16
512.754	0.16
513.105	0.16
513.456	0.16
513.807	0.15
514.157	0.16
514.508	0.15
514.859	0.15
515.209	0.15
515.56	0.16
515.91	0.14
516.261	0.15
516.611	0.15
516.962	0.15
517.312	0.15
517.662	0.15
518.013	0.15
518.363	0.15
518.713	0.16
519.063	0.15
519.413	0.15
519.763	0.15
520.113	0.15
520.463	0.15
520.813	0.15
521.163	0.16
521.512	0.16
521.862	0.16
522.212	0.15
522.562	0.15
522.911	0.15
523.261	0.15
523.61	0.16
523.96	0.15
524.309	0.16
524.658	0.15
525.008	0.15
525.357	0.15
525.706	0.16
526.056	0.15
526.405	0.15
526.754	0.15
527.103	0.15
527.452	0.16
527.801	0.16
528.15	0.16
528.499	0.15
528.847	0.16
529.196	0.16
529.545	0.16
529.893	0.16
530.242	0.16
530.591	0.17
530.939	0.17
531.288	0.16
531.636	0.17
531.985	0.17
532.333	0.16
532.681	0.16
533.029	0.16
533.378	0.16
533.726	0.16
534.074	0.16
534.422	0.16
534.77	0.16
535.118	0.15
535.466	0.16
535.814	0.16
536.162	0.16
536.509	0.16
536.857	0.15
537.205	0.17
537.552	0.17
537.9	0.16
538.248	0.16
538.595	0.16
538.943	0.17
539.29	0.15
539.637	0.16
539.985	0.16
540.332	0.15
540.679	0.15
541.026	0.16
541.373	0.16
541.721	0.15
542.068	0.15
542.415	0.15
542.762	0.14
543.108	0.15
543.455	0.15
543.802	0.15
544.149	0.14
544.496	0.15
544.842	0.14
545.189	0.15
545.535	0.15
545.882	0.16
546.228	0.15
546.575	0.14
546.921	0.15
547.267	0.16
547.614	0.15
547.96	0.15
548.306	0.15
548.652	0.14
548.998	0.16
549.344	0.15
549.69	0.15
550.036	0.15
550.382	0.16
550.728	0.16
551.074	0.17
551.42	0.15
551.765	0.17
552.111	0.17
552.457	0.17
552.802	0.15
553.148	0.16
553.493	0.16
553.839	0.17
554.184	0.16
554.529	0.15
554.875	0.16
555.22	0.15
555.565	0.17
555.91	0.16
556.255	0.17
556.6	0.17
556.945	0.16
557.29	0.16
557.635	0.16
557.98	0.16
558.325	0.16
558.67	0.17
559.014	0.16
559.359	0.16
559.704	0.16
560.048	0.15
560.393	0.16
560.737	0.15
561.082	0.16
561.426	0.15
561.77	0.15
562.115	0.15
562.459	0.15
562.803	0.16
563.147	0.15
563.491	0.15
563.835	0.16
564.179	0.16
564.523	0.15
564.867	0.15
565.211	0.15
565.555	0.16
565.899	0.17
566.242	0.16
566.586	0.15
566.93	0.16
567.273	0.17
567.617	0.16
567.96	0.17
568.304	0.16
568.647	0.16
568.99	0.17
569.334	0.17
569.677	0.15
570.02	0.16
570.363	0.16
570.706	0.16
571.049	0.16
571.392	0.17
571.735	0.15
572.078	0.16
572.421	0.17
572.764	0.16
573.106	0.16
573.449	0.15
573.792	0.16
574.134	0.16
574.477	0.17
574.819	0.16
575.162	0.16
575.504	0.16
575.847	0.16
576.189	0.17
576.531	0.16
576.873	0.16
577.215	0.16
577.558	0.16
577.9	0.15
578.242	0.16
578.584	0.16
578.926	0.16
579.267	0.15
579.609	0.15
579.951	0.15
580.293	0.16
580.634	0.16
580.976	0.16
581.318	0.15
581.659	0.15
582.001	0.16
582.342	0.15
582.683	0.16
583.025	0.15
583.366	0.15
583.707	0.15
584.049	0.15
584.39	0.15
584.731	0.15
585.072	0.15
585.413	0.16
585.754	0.16
586.095	0.16
586.435	0.16
586.776	0.16
587.117	0.15
587.458	0.15
587.798	0.16
588.139	0.15
588.48	0.15
588.82	0.15
589.161	0.15
589.501	0.15
589.841	0.16
590.182	0.15
590.522	0.15
590.862	0.15
591.202	0.15
591.542	0.15
591.882	0.15
592.222	0.15
592.562	0.15
592.902	0.15
593.242	0.15
593.582	0.15
593.922	0.15
594.261	0.15
594.601	0.15
594.941	0.16
595.28	0.15
595.62	0.16
595.959	0.15
596.299	0.15
596.638	0.15
596.977	0.15
597.317	0.16
597.656	0.15
597.995	0.15
598.334	0.16
598.673	0.15
599.012	0.15
599.351	0.15
599.69	0.15
600.029	0.15
600.368	0.15
600.707	0.15
601.046	0.15
601.384	0.16
601.723	0.15
602.061	0.14
602.4	0.15
602.738	0.15
603.077	0.15
603.415	0.14
603.754	0.15
604.092	0.15
604.43	0.15
604.768	0.16
605.107	0.15
605.445	0.15
605.783	0.15
606.121	0.14
606.459	0.14
606.796	0.15
607.134	0.14
607.472	0.14
607.81	0.15
608.148	0.14
608.485	0.15
608.823	0.15
609.16	0.15
609.498	0.15
609.835	0.15
610.173	0.15
610.51	0.15
610.847	0.15
611.185	0.16
611.522	0.15
611.859	0.15
612.196	0.15
612.533	0.15
612.87	0.16
613.207	0.15
613.544	0.15
613.881	0.16
614.217	0.15
614.554	0.16
614.891	0.16
615.228	0.16
615.564	0.16
615.901	0.16
616.237	0.16
616.574	0.16
616.91	0.16
617.246	0.16
617.583	0.16
617.919	0.17
618.255	0.16
618.591	0.15
618.927	0.16
619.263	0.16
619.599	0.16
619.935	0.16
620.271	0.16
620.607	0.16
620.943	0.16
621.279	0.16
621.614	0.16
621.95	0.15
622.286	0.15
622.621	0.15
622.957	0.15
623.292	0.15
623.627	0.15
623.963	0.15
624.298	0.15
624.633	0.14
624.968	0.14
625.304	0.14
625.639	0.15
625.974	0.14
626.309	0.14
626.644	0.15
626.979	0.15
627.313	0.14
627.648	0.14
627.983	0.15
628.318	0.14
628.652	0.14
628.987	0.14
629.321	0.14
629.656	0.14
629.99	0.14
630.325	0.14
630.659	0.15
630.993	0.14
631.327	0.14
631.662	0.13
631.996	0.14
632.33	0.14
632.664	0.14
632.998	0.13
633.332	0.14
633.666	0.13
633.999	0.14
634.333	0.13
634.667	0.14
635.001	0.13
635.334	0.13
635.668	0.13
636.001	0.13
636.335	0.13
636.668	0.14
637.001	0.12
637.335	0.13
637.668	0.13
638.001	0.13
638.334	0.13
638.668	0.13
639.001	0.13
639.334	0.13
639.667	0.13
639.999	0.12
640.332	0.13
640.665	0.13
640.998	0.13
641.331	0.12
641.663	0.13
641.996	0.13
642.328	0.13
642.661	0.13
642.993	0.12
643.326	0.13
643.658	0.12
643.99	0.12
644.323	0.13
644.655	0.13
644.987	0.13
645.319	0.13
645.651	0.13
645.983	0.13
646.315	0.12
646.647	0.13
646.979	0.14
647.31	0.14
647.642	0.13
647.974	0.13
648.305	0.14
648.637	0.13
648.968	0.14
649.3	0.14
649.631	0.14
649.963	0.13
650.294	0.14
650.625	0.13
650.957	0.14
651.288	0.13
651.619	0.13
651.95	0.13
652.281	0.13
652.612	0.13
652.943	0.13
653.274	0.14
653.604	0.13
653.935	0.13
654.266	0.13
654.596	0.12
654.927	0.13
655.258	0.13
655.588	0.13
655.918	0.13
656.249	0.11
656.579	0.13
656.909	0.13
657.24	0.13
657.57	0.13
657.9	0.13
658.23	0.13
658.56	0.13
658.89	0.14
659.22	0.13
659.55	0.13
659.88	0.13
660.209	0.13
660.539	0.14
660.869	0.14
661.198	0.13
661.528	0.13
661.857	0.13
662.187	0.13
662.516	0.13
662.846	0.12
663.175	0.13
663.504	0.13
663.833	0.12
664.163	0.12
664.492	0.13
664.821	0.12
665.15	0.12
665.479	0.13
665.807	0.11
666.136	0.12
666.465	0.12
666.794	0.12
667.122	0.12
667.451	0.12
667.78	0.12
668.108	0.12
668.437	0.12
668.765	0.12
669.093	0.13
669.422	0.12
669.75	0.12
670.078	0.12
670.406	0.12
670.734	0.12
671.062	0.12
671.39	0.12
671.718	0.12
672.046	0.12
672.374	0.12
672.702	0.12
673.029	0.12
673.357	0.12
673.685	0.13
674.012	0.12
674.34	0.11
674.667	0.12
674.995	0.12
675.322	0.12
675.649	0.11
675.977	0.11
676.304	0.11
676.631	0.11
676.958	0.11
677.285	0.1
677.612	0.11
677.939	0.11
678.266	0.11
678.593	0.11
678.92	0.11
679.246	0.11
679.573	0.11
679.9	0.1
680.226	0.1
680.553	0.09
680.879	0.11
681.206	0.11
681.532	0.1
681.858	0.1
682.184	0.1
682.511	0.1
682.837	0.1
683.163	0.1
683.489	0.1
683.815	0.1
684.141	0.1
684.467	0.1
684.793	0.1
685.118	0.1
685.444	0.11
685.77	0.1
686.095	0.1
686.421	0.1
686.746	0.11
687.072	0.1
687.397	0.1
687.723	0.11
688.048	0.11
688.373	0.1
688.698	0.11
689.023	0.1
689.349	0.11
689.674	0.11
689.999	0.1
690.323	0.09
690.648	0.09
690.973	0.09
691.298	0.09
691.623	0.09
691.947	0.09
692.272	0.09
692.596	0.1
692.921	0.09
693.245	0.09
693.57	0.09
693.894	0.09
694.218	0.09
694.543	0.09
694.867	0.09
695.191	0.08
695.515	0.09
695.839	0.08
696.163	0.08
696.487	0.08
696.811	0.08
697.135	0.09
697.458	0.09
697.782	0.09
698.106	0.09
698.429	0.09
698.753	0.09
699.076	0.09
699.4	0.09
699.723	0.09
700.046	0.08
700.37	0.09
700.693	0.09
701.016	0.09
701.339	0.09
701.662	0.09
701.985	0.09
702.308	0.09
702.631	0.09
702.954	0.1
703.277	0.09
703.599	0.09
703.922	0.09
704.245	0.09
704.567	0.08
704.89	0.09
705.212	0.09
705.535	0.08
705.857	0.09
706.179	0.08
706.502	0.08
706.824	0.08
707.146	0.08
707.468	0.09
707.79	0.08
708.112	0.08
708.434	0.09
708.756	0.09
709.078	0.09
709.399	0.08
709.721	0.08
710.043	0.09
710.364	0.08
710.686	0.08
711.007	0.08
711.329	0.08
711.65	0.08
711.972	0.08
712.293	0.08
712.614	0.08
712.935	0.09
713.256	0.08
713.577	0.09
713.898	0.08
714.219	0.08
714.54	0.08
714.861	0.07
715.182	0.08
715.503	0.08
715.823	0.08
716.144	0.08
716.464	0.07
716.785	0.07
717.105	0.07
717.426	0.07
717.746	0.08
718.066	0.06
718.387	0.07
718.707	0.07
719.027	0.08
719.347	0.06
719.667	0.07
719.987	0.07
720.307	0.07
720.627	0.07
720.947	0.07
721.266	0.07
721.586	0.06
721.906	0.06
722.225	0.05
722.545	0.06
722.864	0.06
723.184	0.07
723.503	0.07
