Data from 12-12-AQDScycling_Absorbance__597__00597.txt Node

Date: Tue Dec 12 13:25:59 EST 2023
User: kyuminlee
Spectrometer: FLMS00943
Trigger mode: 0
Integration Time (sec): 1.000000E-1
Scans to average: 1
Electric dark correction enabled: true
Nonlinearity correction enabled: false
Boxcar width: 0
XAxis mode: Wavelengths
Number of Pixels in Spectrum: 2048
>>>>>Begin Spectral Data<<<<<
179.651	-0.1
180.037	-0.1
180.424	-0.1
180.81	-0.26
181.197	0.07
181.583	-0
181.97	0.13
182.356	-0
182.743	-0
183.129	0.4
183.515	0.77
183.901	-2.2
184.288	0.41
184.674	-0
185.06	-0
185.446	-0
185.832	-1.07
186.218	0.4
186.604	0.04
186.99	-0
187.376	0.82
187.762	-0
188.148	-0
188.534	-0.35
188.92	0.08
189.305	0.08
189.691	0.3
190.077	0.13
190.463	0.09
190.848	0.01
191.234	0.01
191.619	0.12
192.005	0.09
192.391	0.08
192.776	0.27
193.161	0.19
193.547	0.12
193.932	0.03
194.318	0.1
194.703	0.2
195.088	0.29
195.473	0.13
195.859	0.11
196.244	0.18
196.629	0.19
197.014	0.04
197.399	0.24
197.784	0.14
198.169	0.17
198.554	0.27
198.939	0.06
199.324	0.12
199.709	0.15
200.094	0.04
200.478	0.1
200.863	0.24
201.248	0.02
201.633	0.16
202.017	0.03
202.402	0.14
202.787	0.09
203.171	0.13
203.556	0.26
203.94	0.23
204.325	0.31
204.709	0.26
205.093	0.21
205.478	0.16
205.862	0.16
206.246	0.05
206.631	0.09
207.015	0.11
207.399	0.19
207.783	0.05
208.167	0.12
208.551	0.22
208.935	0.11
209.319	0.18
209.703	0.13
210.087	0.25
210.471	0.07
210.855	0.15
211.239	0.13
211.623	0.37
212.007	0.22
212.39	0.36
212.774	0.13
213.158	0.11
213.541	0.22
213.925	0.27
214.309	0.19
214.692	0.39
215.076	0.26
215.459	0.13
215.842	0.12
216.226	0.17
216.609	0.41
216.993	0.25
217.376	0.44
217.759	0.19
218.142	0.32
218.525	0.48
218.909	0.43
219.292	0.41
219.675	0.55
220.058	0.5
220.441	0.61
220.824	0.43
221.207	0.55
221.59	0.64
221.973	0.52
222.355	0.67
222.738	0.68
223.121	0.56
223.504	0.54
223.886	0.64
224.269	0.61
224.652	0.6
225.034	0.78
225.417	0.7
225.799	0.74
226.182	0.87
226.564	0.82
226.947	0.77
227.329	0.79
227.711	1.11
228.094	0.89
228.476	1.04
228.858	0.75
229.24	0.77
229.623	0.88
230.005	0.78
230.387	0.91
230.769	0.8
231.151	0.91
231.533	0.89
231.915	0.91
232.297	1.2
232.679	1.08
233.061	1.1
233.442	0.97
233.824	1.05
234.206	1.02
234.588	1.09
234.969	1.1
235.351	1.13
235.733	0.99
236.114	1.23
236.496	1.1
236.877	1.1
237.259	1.04
237.64	1.02
238.022	1.02
238.403	1.07
238.784	1.03
239.165	1.1
239.547	1.05
239.928	1.09
240.309	1.26
240.69	1.14
241.071	1.28
241.452	1.13
241.834	1.03
242.215	1.15
242.595	0.98
242.976	1.16
243.357	1.09
243.738	1.09
244.119	1.21
244.5	1.05
244.881	1.28
245.261	1.29
245.642	1.11
246.023	1.27
246.403	1.21
246.784	1.2
247.164	1.38
247.545	1.31
247.925	1.35
248.306	1.25
248.686	1.33
249.067	1.42
249.447	1.45
249.827	1.39
250.207	1.37
250.588	1.35
250.968	1.42
251.348	1.42
251.728	1.71
252.108	1.37
252.488	1.3
252.868	1.39
253.248	1.31
253.628	1.43
254.008	1.42
254.388	1.28
254.768	1.35
255.147	1.37
255.527	1.35
255.907	1.34
256.287	1.32
256.666	1.41
257.046	1.47
257.425	1.45
257.805	1.4
258.184	1.27
258.564	1.44
258.943	1.32
259.323	1.51
259.702	1.72
260.081	1.5
260.461	1.51
260.84	1.45
261.219	1.68
261.598	1.5
261.977	1.6
262.356	1.67
262.736	1.51
263.115	1.81
263.494	1.43
263.873	1.44
264.251	1.38
264.63	1.48
265.009	1.44
265.388	1.4
265.767	1.35
266.145	1.51
266.524	1.45
266.903	1.38
267.281	1.44
267.66	1.56
268.039	1.48
268.417	1.33
268.796	1.47
269.174	1.4
269.552	1.44
269.931	1.46
270.309	1.31
270.687	1.54
271.066	1.54
271.444	1.35
271.822	1.5
272.2	1.53
272.578	1.41
272.956	1.39
273.334	1.42
273.712	1.38
274.09	1.53
274.468	1.46
274.846	1.47
275.224	1.47
275.602	1.57
275.98	1.59
276.357	1.31
276.735	1.44
277.113	1.43
277.49	1.39
277.868	1.32
278.246	1.34
278.623	1.28
279.001	1.34
279.378	1.36
279.756	1.51
280.133	1.73
280.51	1.44
280.888	1.52
281.265	1.31
281.642	1.46
282.019	1.48
282.396	1.64
282.773	1.69
283.151	1.52
283.528	1.67
283.905	1.45
284.282	1.47
284.659	1.6
285.035	1.42
285.412	1.45
285.789	1.66
286.166	1.47
286.543	1.42
286.919	1.63
287.296	1.41
287.673	1.67
288.049	1.53
288.426	1.62
288.802	1.57
289.179	1.42
289.555	1.6
289.932	1.49
290.308	1.33
290.684	1.31
291.061	1.36
291.437	1.5
291.813	1.45
292.189	1.25
292.565	1.25
292.942	1.36
293.318	1.49
293.694	1.56
294.07	1.34
294.446	1.39
294.822	1.56
295.197	1.43
295.573	1.36
295.949	1.37
296.325	1.39
296.701	1.45
297.076	1.4
297.452	1.47
297.828	1.32
298.203	1.4
298.579	1.24
298.954	1.32
299.33	1.31
299.705	1.35
300.081	1.39
300.456	1.28
300.831	1.3
301.206	1.23
301.582	1.32
301.957	1.23
302.332	1.27
302.707	1.18
303.082	1.12
303.457	1.16
303.832	1.1
304.207	1.11
304.582	1.08
304.957	1.06
305.332	1.09
305.707	0.98
306.082	1.01
306.456	1.01
306.831	0.98
307.206	0.94
307.58	0.98
307.955	0.91
308.33	0.89
308.704	0.85
309.079	0.84
309.453	0.92
309.828	0.87
310.202	0.83
310.576	0.81
310.951	0.83
311.325	0.78
311.699	0.79
312.073	0.77
312.447	0.76
312.821	0.73
313.196	0.72
313.57	0.7
313.944	0.71
314.317	0.68
314.691	0.69
315.065	0.68
315.439	0.66
315.813	0.66
316.187	0.67
316.56	0.66
316.934	0.7
317.308	0.63
317.681	0.63
318.055	0.62
318.428	0.61
318.802	0.62
319.175	0.62
319.549	0.6
319.922	0.6
320.295	0.61
320.669	0.62
321.042	0.61
321.415	0.62
321.788	0.59
322.162	0.55
322.535	0.57
322.908	0.57
323.281	0.56
323.654	0.57
324.027	0.55
324.4	0.57
324.773	0.57
325.145	0.59
325.518	0.57
325.891	0.58
326.264	0.58
326.636	0.56
327.009	0.56
327.382	0.57
327.754	0.59
328.127	0.59
328.499	0.59
328.872	0.6
329.244	0.6
329.616	0.6
329.989	0.6
330.361	0.61
330.733	0.63
331.106	0.59
331.478	0.64
331.85	0.62
332.222	0.61
332.594	0.65
332.966	0.65
333.338	0.7
333.71	0.69
334.082	0.67
334.454	0.68
334.826	0.69
335.197	0.72
335.569	0.69
335.941	0.72
336.312	0.72
336.684	0.72
337.056	0.74
337.427	0.79
337.799	0.81
338.17	0.79
338.542	0.77
338.913	0.83
339.284	0.81
339.656	0.8
340.027	0.84
340.398	0.85
340.769	0.89
341.141	0.9
341.512	0.87
341.883	0.91
342.254	0.87
342.625	0.94
342.996	0.9
343.367	0.94
343.738	0.96
344.108	0.93
344.479	1.03
344.85	0.97
345.221	1.03
345.591	0.96
345.962	0.98
346.333	1.03
346.703	0.96
347.074	0.97
347.444	1.07
347.815	1.07
348.185	1.13
348.556	1.08
348.926	1.05
349.296	1.09
349.666	1.18
350.037	1.13
350.407	1.12
350.777	1.16
351.147	1.23
351.517	1.17
351.887	1.22
352.257	1.33
352.627	1.2
352.997	1.26
353.367	1.23
353.737	1.4
354.106	1.31
354.476	1.23
354.846	1.43
355.216	1.39
355.585	1.45
355.955	1.39
356.324	1.39
356.694	1.43
357.063	1.36
357.433	1.39
357.802	1.46
358.171	1.47
358.541	1.51
358.91	1.59
359.279	1.54
359.648	1.34
360.017	1.75
360.387	1.72
360.756	1.56
361.125	1.82
361.494	1.66
361.863	1.52
362.231	1.51
362.6	1.61
362.969	1.5
363.338	1.55
363.707	1.61
364.075	1.6
364.444	1.43
364.813	1.46
365.181	1.59
365.55	1.6
365.918	1.71
366.287	1.76
366.655	1.6
367.024	1.88
367.392	1.52
367.76	1.52
368.128	1.53
368.497	1.56
368.865	1.47
369.233	1.51
369.601	1.52
369.969	1.63
370.337	1.58
370.705	1.51
371.073	1.58
371.441	1.75
371.809	1.49
372.177	1.49
372.544	1.74
372.912	1.46
373.28	1.54
373.647	1.58
374.015	1.67
374.383	1.77
374.75	1.85
375.118	1.56
375.485	1.61
375.853	1.63
376.22	1.46
376.587	1.61
376.955	1.49
377.322	1.63
377.689	1.54
378.056	1.57
378.423	1.5
378.79	1.58
379.157	1.59
379.524	1.53
379.891	1.6
380.258	1.52
380.625	1.54
380.992	1.53
381.359	1.62
381.726	1.72
382.092	1.48
382.459	1.56
382.826	1.53
383.192	1.71
383.559	1.5
383.925	1.59
384.292	1.53
384.658	1.66
385.025	1.56
385.391	1.72
385.757	1.63
386.123	1.64
386.49	1.51
386.856	1.64
387.222	1.62
387.588	1.55
387.954	1.71
388.32	1.61
388.686	1.62
389.052	1.53
389.418	1.55
389.784	1.58
390.15	1.55
390.515	1.37
390.881	1.72
391.247	1.5
391.613	1.75
391.978	1.43
392.344	1.48
392.709	1.55
393.075	1.64
393.44	1.6
393.806	1.63
394.171	1.62
394.536	1.5
394.902	1.58
395.267	1.73
395.632	1.62
395.997	1.6
396.362	1.5
396.727	1.51
397.092	1.49
397.457	1.55
397.822	1.53
398.187	1.71
398.552	1.45
398.917	1.66
399.282	1.48
399.646	1.59
400.011	1.72
400.376	1.43
400.74	1.48
401.105	1.6
401.47	1.99
401.834	1.68
402.199	1.52
402.563	1.56
402.927	1.71
403.292	1.52
403.656	1.44
404.02	1.59
404.384	1.81
404.749	1.66
405.113	1.57
405.477	1.56
405.841	1.62
406.205	1.58
406.569	1.66
406.933	1.59
407.296	1.6
407.66	1.58
408.024	1.55
408.388	1.68
408.752	1.46
409.115	1.69
409.479	1.69
409.842	1.55
410.206	1.5
410.569	1.53
410.933	1.63
411.296	1.48
411.66	1.65
412.023	1.55
412.386	1.47
412.749	1.53
413.113	1.72
413.476	1.55
413.839	1.57
414.202	1.51
414.565	1.52
414.928	1.42
415.291	1.59
415.654	1.44
416.017	1.55
416.38	1.46
416.742	1.52
417.105	1.65
417.468	1.45
417.83	1.43
418.193	1.54
418.556	1.45
418.918	1.34
419.281	1.5
419.643	1.47
420.005	1.55
420.368	1.58
420.73	1.51
421.092	1.55
421.455	1.67
421.817	1.51
422.179	1.55
422.541	1.56
422.903	1.68
423.265	1.61
423.627	1.61
423.989	1.55
424.351	1.43
424.713	1.55
425.075	1.62
425.436	1.55
425.798	1.47
426.16	1.63
426.521	1.57
426.883	1.59
427.245	1.5
427.606	1.47
427.967	1.47
428.329	1.59
428.69	1.63
429.052	1.43
429.413	1.64
429.774	1.63
430.135	1.64
430.497	1.59
430.858	1.54
431.219	1.61
431.58	1.52
431.941	1.51
432.302	1.55
432.663	1.67
433.024	1.76
433.384	1.6
433.745	1.47
434.106	1.57
434.467	1.52
434.827	1.57
435.188	1.51
435.548	1.71
435.909	1.61
436.269	1.62
436.63	1.49
436.99	1.59
437.351	1.46
437.711	1.5
438.071	1.46
438.431	1.44
438.792	1.47
439.152	1.48
439.512	1.55
439.872	1.38
440.232	1.51
440.592	1.49
440.952	1.61
441.312	1.46
441.671	1.5
442.031	1.58
442.391	1.58
442.751	1.54
443.11	1.44
443.47	1.39
443.83	1.46
444.189	1.47
444.549	1.4
444.908	1.4
445.267	1.43
445.627	1.4
445.986	1.43
446.345	1.41
446.705	1.4
447.064	1.51
447.423	1.44
447.782	1.42
448.141	1.43
448.5	1.35
448.859	1.38
449.218	1.4
449.577	1.39
449.936	1.42
450.295	1.42
450.653	1.35
451.012	1.39
451.371	1.37
451.729	1.38
452.088	1.32
452.447	1.41
452.805	1.33
453.163	1.31
453.522	1.33
453.88	1.3
454.239	1.31
454.597	1.25
454.955	1.26
455.313	1.26
455.671	1.23
456.029	1.28
456.388	1.21
456.746	1.2
457.104	1.21
457.461	1.19
457.819	1.16
458.177	1.15
458.535	1.11
458.893	1.13
459.25	1.13
459.608	1.1
459.966	1.08
460.323	1.07
460.681	1.04
461.038	1.04
461.396	1.03
461.753	1.01
462.111	1
462.468	0.96
462.825	0.96
463.182	0.96
463.54	0.95
463.897	0.94
464.254	0.92
464.611	0.9
464.968	0.9
465.325	0.88
465.682	0.88
466.039	0.85
466.395	0.82
466.752	0.83
467.109	0.81
467.466	0.8
467.822	0.81
468.179	0.76
468.535	0.76
468.892	0.75
469.248	0.73
469.605	0.72
469.961	0.72
470.318	0.7
470.674	0.71
471.03	0.68
471.386	0.67
471.743	0.66
472.099	0.64
472.455	0.64
472.811	0.63
473.167	0.62
473.523	0.6
473.879	0.6
474.235	0.58
474.59	0.57
474.946	0.55
475.302	0.55
475.657	0.53
476.013	0.52
476.369	0.51
476.724	0.5
477.08	0.5
477.435	0.48
477.791	0.48
478.146	0.47
478.501	0.45
478.857	0.45
479.212	0.44
479.567	0.43
479.922	0.42
480.277	0.41
480.632	0.39
480.987	0.4
481.342	0.38
481.697	0.38
482.052	0.37
482.407	0.36
482.762	0.36
483.116	0.34
483.471	0.33
483.826	0.32
484.18	0.32
484.535	0.31
484.89	0.3
485.244	0.3
485.598	0.3
485.953	0.29
486.307	0.29
486.661	0.28
487.016	0.27
487.37	0.26
487.724	0.26
488.078	0.25
488.432	0.25
488.786	0.25
489.14	0.24
489.494	0.23
489.848	0.23
490.202	0.22
490.556	0.22
490.91	0.21
491.263	0.21
491.617	0.2
491.971	0.2
492.324	0.19
492.678	0.19
493.031	0.19
493.385	0.19
493.738	0.18
494.091	0.18
494.445	0.18
494.798	0.17
495.151	0.17
495.504	0.16
495.857	0.16
496.21	0.16
496.564	0.15
496.916	0.15
497.269	0.14
497.622	0.14
497.975	0.14
498.328	0.14
498.681	0.13
499.033	0.12
499.386	0.12
499.739	0.12
500.091	0.12
500.444	0.11
500.796	0.11
501.149	0.11
501.501	0.11
501.854	0.11
502.206	0.11
502.558	0.11
502.91	0.11
503.263	0.1
503.615	0.1
503.967	0.1
504.319	0.09
504.671	0.09
505.023	0.09
505.375	0.09
505.726	0.09
506.078	0.09
506.43	0.08
506.782	0.08
507.133	0.07
507.485	0.08
507.837	0.09
508.188	0.08
508.54	0.08
508.891	0.08
509.243	0.07
509.594	0.07
509.945	0.06
510.296	0.07
510.648	0.08
510.999	0.06
511.35	0.06
511.701	0.07
512.052	0.07
512.403	0.07
512.754	0.06
513.105	0.06
513.456	0.06
513.807	0.06
514.157	0.06
514.508	0.06
514.859	0.05
515.209	0.06
515.56	0.05
515.91	0.06
516.261	0.06
516.611	0.05
516.962	0.06
517.312	0.05
517.662	0.06
518.013	0.05
518.363	0.05
518.713	0.05
519.063	0.06
519.413	0.05
519.763	0.05
520.113	0.05
520.463	0.05
520.813	0.05
521.163	0.05
521.512	0.05
521.862	0.05
522.212	0.05
522.562	0.04
522.911	0.05
523.261	0.05
523.61	0.05
523.96	0.05
524.309	0.05
524.658	0.05
525.008	0.04
525.357	0.04
525.706	0.04
526.056	0.04
526.405	0.04
526.754	0.04
527.103	0.04
527.452	0.04
527.801	0.05
528.15	0.05
528.499	0.05
528.847	0.04
529.196	0.05
529.545	0.05
529.893	0.05
530.242	0.04
530.591	0.05
530.939	0.05
531.288	0.05
531.636	0.05
531.985	0.05
532.333	0.05
532.681	0.05
533.029	0.04
533.378	0.05
533.726	0.05
534.074	0.05
534.422	0.04
534.77	0.05
535.118	0.05
535.466	0.05
535.814	0.04
536.162	0.05
536.509	0.04
536.857	0.04
537.205	0.05
537.552	0.04
537.9	0.04
538.248	0.03
538.595	0.04
538.943	0.05
539.29	0.04
539.637	0.05
539.985	0.04
540.332	0.04
540.679	0.04
541.026	0.04
541.373	0.05
541.721	0.04
542.068	0.04
542.415	0.04
542.762	0.03
543.108	0.03
543.455	0.03
543.802	0.03
544.149	0.03
544.496	0.04
544.842	0.03
545.189	0.02
545.535	0.03
545.882	0.03
546.228	0.03
546.575	0.03
546.921	0.03
547.267	0.03
547.614	0.03
547.96	0.03
548.306	0.03
548.652	0.03
548.998	0.04
549.344	0.03
549.69	0.03
550.036	0.03
550.382	0.03
550.728	0.02
551.074	0.03
551.42	0.03
551.765	0.03
552.111	0.04
552.457	0.04
552.802	0.03
553.148	0.03
553.493	0.03
553.839	0.03
554.184	0.03
554.529	0.03
554.875	0.03
555.22	0.04
555.565	0.04
555.91	0.03
556.255	0.04
556.6	0.04
556.945	0.03
557.29	0.03
557.635	0.03
557.98	0.03
558.325	0.03
558.67	0.03
559.014	0.04
559.359	0.04
559.704	0.04
560.048	0.03
560.393	0.03
560.737	0.02
561.082	0.04
561.426	0.02
561.77	0.04
562.115	0.03
562.459	0.03
562.803	0.03
563.147	0.03
563.491	0.03
563.835	0.04
564.179	0.03
564.523	0.03
564.867	0.03
565.211	0.03
565.555	0.03
565.899	0.04
566.242	0.03
566.586	0.02
566.93	0.04
567.273	0.03
567.617	0.03
567.96	0.04
568.304	0.04
568.647	0.03
568.99	0.03
569.334	0.04
569.677	0.04
570.02	0.04
570.363	0.04
570.706	0.04
571.049	0.04
571.392	0.04
571.735	0.04
572.078	0.04
572.421	0.04
572.764	0.03
573.106	0.04
573.449	0.03
573.792	0.03
574.134	0.03
574.477	0.03
574.819	0.03
575.162	0.03
575.504	0.03
575.847	0.03
576.189	0.03
576.531	0.03
576.873	0.03
577.215	0.03
577.558	0.03
577.9	0.03
578.242	0.03
578.584	0.03
578.926	0.03
579.267	0.03
579.609	0.03
579.951	0.03
580.293	0.03
580.634	0.04
580.976	0.04
581.318	0.04
581.659	0.03
582.001	0.03
582.342	0.03
582.683	0.03
583.025	0.02
583.366	0.02
583.707	0.03
584.049	0.03
584.39	0.03
584.731	0.02
585.072	0.02
585.413	0.04
585.754	0.03
586.095	0.03
586.435	0.03
586.776	0.04
587.117	0.03
587.458	0.03
587.798	0.03
588.139	0.03
588.48	0.03
588.82	0.03
589.161	0.03
589.501	0.03
589.841	0.03
590.182	0.02
590.522	0.02
590.862	0.03
591.202	0.03
591.542	0.02
591.882	0.03
592.222	0.03
592.562	0.03
592.902	0.03
593.242	0.03
593.582	0.03
593.922	0.03
594.261	0.03
594.601	0.03
594.941	0.03
595.28	0.03
595.62	0.03
595.959	0.03
596.299	0.03
596.638	0.03
596.977	0.03
597.317	0.04
597.656	0.03
597.995	0.03
598.334	0.04
598.673	0.03
599.012	0.04
599.351	0.04
599.69	0.04
600.029	0.04
600.368	0.04
600.707	0.04
601.046	0.03
601.384	0.04
601.723	0.04
602.061	0.03
602.4	0.04
602.738	0.04
603.077	0.04
603.415	0.03
603.754	0.03
604.092	0.03
604.43	0.03
604.768	0.03
605.107	0.03
605.445	0.03
605.783	0.03
606.121	0.03
606.459	0.03
606.796	0.03
607.134	0.02
607.472	0.03
607.81	0.03
608.148	0.03
608.485	0.03
608.823	0.03
609.16	0.02
609.498	0.03
609.835	0.03
610.173	0.02
610.51	0.03
610.847	0.03
611.185	0.03
611.522	0.03
611.859	0.03
612.196	0.04
612.533	0.03
612.87	0.04
613.207	0.04
613.544	0.03
613.881	0.04
614.217	0.04
614.554	0.04
614.891	0.04
615.228	0.04
615.564	0.05
615.901	0.04
616.237	0.05
616.574	0.04
616.91	0.05
617.246	0.04
617.583	0.04
617.919	0.04
618.255	0.05
618.591	0.04
618.927	0.04
619.263	0.05
619.599	0.05
619.935	0.05
620.271	0.04
620.607	0.04
620.943	0.04
621.279	0.05
621.614	0.05
621.95	0.05
622.286	0.04
622.621	0.04
622.957	0.04
623.292	0.04
623.627	0.04
623.963	0.04
624.298	0.04
624.633	0.04
624.968	0.04
625.304	0.04
625.639	0.04
625.974	0.03
626.309	0.03
626.644	0.04
626.979	0.04
627.313	0.04
627.648	0.03
627.983	0.04
628.318	0.03
628.652	0.04
628.987	0.04
629.321	0.03
629.656	0.03
629.99	0.03
630.325	0.03
630.659	0.03
630.993	0.03
631.327	0.03
631.662	0.02
631.996	0.02
632.33	0.03
632.664	0.04
632.998	0.03
633.332	0.03
633.666	0.03
633.999	0.03
634.333	0.02
634.667	0.03
635.001	0.03
635.334	0.03
635.668	0.03
636.001	0.03
636.335	0.02
636.668	0.04
637.001	0.02
637.335	0.03
637.668	0.03
638.001	0.03
638.334	0.03
638.668	0.03
639.001	0.03
639.334	0.03
639.667	0.02
639.999	0.03
640.332	0.03
640.665	0.03
640.998	0.04
641.331	0.03
641.663	0.03
641.996	0.03
642.328	0.04
642.661	0.03
642.993	0.02
643.326	0.03
643.658	0.02
643.99	0.03
644.323	0.03
644.655	0.03
644.987	0.03
645.319	0.03
645.651	0.03
645.983	0.03
646.315	0.03
646.647	0.03
646.979	0.04
647.31	0.04
647.642	0.03
647.974	0.03
648.305	0.04
648.637	0.04
648.968	0.04
649.3	0.04
649.631	0.03
649.963	0.03
650.294	0.03
650.625	0.03
650.957	0.04
651.288	0.04
651.619	0.04
651.95	0.04
652.281	0.04
652.612	0.03
652.943	0.04
653.274	0.05
653.604	0.04
653.935	0.03
654.266	0.04
654.596	0.04
654.927	0.04
655.258	0.04
655.588	0.04
655.918	0.04
656.249	0.03
656.579	0.03
656.909	0.03
657.24	0.04
657.57	0.04
657.9	0.04
658.23	0.04
658.56	0.04
658.89	0.04
659.22	0.03
659.55	0.04
659.88	0.04
660.209	0.04
660.539	0.05
660.869	0.04
661.198	0.04
661.528	0.04
661.857	0.03
662.187	0.04
662.516	0.03
662.846	0.04
663.175	0.03
663.504	0.04
663.833	0.03
664.163	0.04
664.492	0.04
664.821	0.04
665.15	0.04
665.479	0.04
665.807	0.04
666.136	0.04
666.465	0.04
666.794	0.04
667.122	0.04
667.451	0.03
667.78	0.04
668.108	0.05
668.437	0.04
668.765	0.04
669.093	0.04
669.422	0.04
669.75	0.05
670.078	0.04
670.406	0.04
670.734	0.04
671.062	0.04
671.39	0.04
671.718	0.04
672.046	0.04
672.374	0.03
672.702	0.04
673.029	0.03
673.357	0.04
673.685	0.05
674.012	0.04
674.34	0.04
674.667	0.04
674.995	0.04
675.322	0.04
675.649	0.04
675.977	0.04
676.304	0.04
676.631	0.04
676.958	0.04
677.285	0.04
677.612	0.03
677.939	0.04
678.266	0.04
678.593	0.04
678.92	0.04
679.246	0.03
679.573	0.03
679.9	0.04
680.226	0.04
680.553	0.03
680.879	0.04
681.206	0.04
681.532	0.04
681.858	0.04
682.184	0.03
682.511	0.04
682.837	0.04
683.163	0.04
683.489	0.04
683.815	0.04
684.141	0.04
684.467	0.04
684.793	0.04
685.118	0.04
685.444	0.04
685.77	0.04
686.095	0.04
686.421	0.04
686.746	0.04
687.072	0.04
687.397	0.03
687.723	0.04
688.048	0.04
688.373	0.04
688.698	0.04
689.023	0.04
689.349	0.04
689.674	0.04
689.999	0.04
690.323	0.03
690.648	0.04
690.973	0.04
691.298	0.04
691.623	0.04
691.947	0.04
692.272	0.04
692.596	0.05
692.921	0.04
693.245	0.04
693.57	0.05
693.894	0.04
694.218	0.05
694.543	0.04
694.867	0.04
695.191	0.04
695.515	0.05
695.839	0.04
696.163	0.04
696.487	0.05
696.811	0.04
697.135	0.05
697.458	0.04
697.782	0.04
698.106	0.04
698.429	0.04
698.753	0.04
699.076	0.04
699.4	0.04
699.723	0.04
700.046	0.04
700.37	0.04
700.693	0.04
701.016	0.05
701.339	0.04
701.662	0.05
701.985	0.04
702.308	0.04
702.631	0.05
702.954	0.05
703.277	0.04
703.599	0.05
703.922	0.04
704.245	0.04
704.567	0.03
704.89	0.04
705.212	0.04
705.535	0.04
705.857	0.04
706.179	0.03
706.502	0.04
706.824	0.03
707.146	0.04
707.468	0.04
707.79	0.04
708.112	0.04
708.434	0.04
708.756	0.04
709.078	0.05
709.399	0.04
709.721	0.04
710.043	0.04
710.364	0.04
710.686	0.04
711.007	0.04
711.329	0.05
711.65	0.04
711.972	0.04
712.293	0.04
712.614	0.05
712.935	0.05
713.256	0.04
713.577	0.05
713.898	0.05
714.219	0.04
714.54	0.04
714.861	0.03
715.182	0.04
715.503	0.04
715.823	0.03
716.144	0.03
716.464	0.03
716.785	0.03
717.105	0.04
717.426	0.04
717.746	0.03
718.066	0.03
718.387	0.04
718.707	0.03
719.027	0.04
719.347	0.03
719.667	0.03
719.987	0.03
720.307	0.03
720.627	0.03
720.947	0.03
721.266	0.04
721.586	0.03
721.906	0.04
722.225	0.04
722.545	0.03
722.864	0.03
