Data from 12-12-AQDScycling_Absorbance__395__00395.txt Node

Date: Tue Dec 12 12:35:29 EST 2023
User: kyuminlee
Spectrometer: FLMS00943
Trigger mode: 0
Integration Time (sec): 1.000000E-1
Scans to average: 1
Electric dark correction enabled: true
Nonlinearity correction enabled: false
Boxcar width: 0
XAxis mode: Wavelengths
Number of Pixels in Spectrum: 2048
>>>>>Begin Spectral Data<<<<<
179.651	-0
180.037	-0
180.424	-0
180.81	-0
181.197	0.56
181.583	-0.57
181.97	-0
182.356	-0
182.743	-0
183.129	1.38
183.515	0.13
183.901	-0
184.288	0.15
184.674	0.36
185.06	-0
185.446	-0.08
185.832	-0
186.218	0.56
186.604	0.59
186.99	-0
187.376	-0
187.762	-0.22
188.148	0.54
188.534	-0.16
188.92	0.15
189.305	0.04
189.691	0.15
190.077	0.11
190.463	0.09
190.848	0.22
191.234	0.04
191.619	0.1
192.005	0.18
192.391	0.12
192.776	0.17
193.161	0.02
193.547	0.09
193.932	0.14
194.318	0.08
194.703	0.29
195.088	0.22
195.473	0.19
195.859	0.25
196.244	0.18
196.629	0.16
197.014	0.1
197.399	0.09
197.784	0.18
198.169	0.08
198.554	0.37
198.939	0.06
199.324	0.17
199.709	0.19
200.094	0.07
200.478	0.17
200.863	0.33
201.248	0.25
201.633	0.19
202.017	0.22
202.402	0.12
202.787	0.13
203.171	0.14
203.556	0.22
203.94	0.12
204.325	0.14
204.709	0.29
205.093	0.08
205.478	0.28
205.862	0.22
206.246	0.19
206.631	0.09
207.015	0.13
207.399	0.23
207.783	0.15
208.167	0.18
208.551	0.21
208.935	0.29
209.319	0.19
209.703	0.3
210.087	0.31
210.471	0.1
210.855	0.16
211.239	0.35
211.623	0.28
212.007	0.36
212.39	0.24
212.774	0.17
213.158	0.17
213.541	0.32
213.925	0.28
214.309	0.47
214.692	0.29
215.076	0.2
215.459	0.2
215.842	0.2
216.226	0.2
216.609	0.24
216.993	0.1
217.376	0.62
217.759	0.23
218.142	0.3
218.525	0.39
218.909	0.52
219.292	0.44
219.675	0.44
220.058	0.44
220.441	0.51
220.824	0.56
221.207	0.59
221.59	0.5
221.973	0.5
222.355	0.58
222.738	0.85
223.121	0.68
223.504	0.54
223.886	0.78
224.269	0.67
224.652	0.64
225.034	0.73
225.417	0.74
225.799	0.92
226.182	1.09
226.564	0.8
226.947	0.8
227.329	0.86
227.711	0.96
228.094	1.05
228.476	0.88
228.858	0.78
229.24	0.79
229.623	1.05
230.005	1
230.387	0.9
230.769	0.92
231.151	0.96
231.533	1.01
231.915	0.92
232.297	0.92
232.679	1.17
233.061	1.1
233.442	1.02
233.824	1
234.206	1.07
234.588	1.04
234.969	1.05
235.351	0.93
235.733	1.13
236.114	1.12
236.496	0.99
236.877	1.01
237.259	1.32
237.64	1.12
238.022	1.06
238.403	1
238.784	1.06
239.165	0.91
239.547	1.04
239.928	1.03
240.309	1.08
240.69	1.07
241.071	1.13
241.452	1.08
241.834	1.2
242.215	1.07
242.595	1.1
242.976	1
243.357	0.99
243.738	1.09
244.119	1.22
244.5	1.11
244.881	1.22
245.261	1.17
245.642	1.27
246.023	1.23
246.403	1.21
246.784	1.22
247.164	1.31
247.545	1.24
247.925	1.44
248.306	1.26
248.686	1.36
249.067	1.27
249.447	1.41
249.827	1.32
250.207	1.53
250.588	1.3
250.968	1.55
251.348	1.42
251.728	1.36
252.108	1.34
252.488	1.57
252.868	1.43
253.248	1.48
253.628	1.49
254.008	1.44
254.388	1.36
254.768	1.55
255.147	1.43
255.527	1.34
255.907	1.4
256.287	1.21
256.666	1.45
257.046	1.53
257.425	1.6
257.805	1.38
258.184	1.31
258.564	1.42
258.943	1.36
259.323	1.56
259.702	1.4
260.081	1.6
260.461	1.48
260.84	1.48
261.219	1.7
261.598	1.54
261.977	1.47
262.356	1.44
262.736	1.64
263.115	1.55
263.494	1.54
263.873	1.52
264.251	1.45
264.63	1.56
265.009	1.38
265.388	1.44
265.767	1.39
266.145	1.48
266.524	1.36
266.903	1.5
267.281	1.38
267.66	1.7
268.039	1.4
268.417	1.51
268.796	1.51
269.174	1.63
269.552	1.34
269.931	1.58
270.309	1.54
270.687	1.56
271.066	1.59
271.444	1.46
271.822	1.68
272.2	1.5
272.578	1.41
272.956	1.39
273.334	1.41
273.712	1.39
274.09	1.56
274.468	1.34
274.846	1.36
275.224	1.36
275.602	1.51
275.98	1.36
276.357	1.37
276.735	1.51
277.113	1.34
277.49	1.35
277.868	1.33
278.246	1.43
278.623	1.33
279.001	1.34
279.378	1.49
279.756	1.52
280.133	1.74
280.51	1.4
280.888	1.52
281.265	1.28
281.642	1.48
282.019	1.71
282.396	1.51
282.773	1.45
283.151	1.43
283.528	1.46
283.905	1.44
284.282	1.56
284.659	1.63
285.035	1.4
285.412	1.32
285.789	1.54
286.166	1.34
286.543	1.49
286.919	1.37
287.296	1.58
287.673	1.98
288.049	1.59
288.426	1.66
288.802	1.65
289.179	1.51
289.555	2.26
289.932	1.49
290.308	1.42
290.684	1.39
291.061	1.37
291.437	1.53
291.813	1.28
292.189	1.27
292.565	1.39
292.942	1.48
293.318	1.27
293.694	1.57
294.07	1.35
294.446	1.56
294.822	1.64
295.197	1.49
295.573	1.48
295.949	1.34
296.325	1.46
296.701	1.52
297.076	1.47
297.452	1.54
297.828	1.38
298.203	1.63
298.579	1.45
298.954	1.33
299.33	1.39
299.705	1.46
300.081	1.52
300.456	1.49
300.831	1.43
301.206	1.46
301.582	1.44
301.957	1.35
302.332	1.35
302.707	1.38
303.082	1.32
303.457	1.36
303.832	1.35
304.207	1.26
304.582	1.25
304.957	1.32
305.332	1.26
305.707	1.26
306.082	1.26
306.456	1.23
306.831	1.16
307.206	1.28
307.58	1.25
307.955	1.25
308.33	1.17
308.704	1.25
309.079	1.18
309.453	1.31
309.828	1.16
310.202	1.21
310.576	1.2
310.951	1.21
311.325	1.18
311.699	1.19
312.073	1.1
312.447	1.14
312.821	1.14
313.196	1.13
313.57	1.11
313.944	1.11
314.317	1.12
314.691	1.11
315.065	1.11
315.439	1.11
315.813	1.07
316.187	1.14
316.56	1.14
316.934	1.14
317.308	1.15
317.681	1.08
318.055	1.1
318.428	1.09
318.802	1.13
319.175	1.1
319.549	1.14
319.922	1.03
320.295	1.08
320.669	1.11
321.042	1.13
321.415	1.14
321.788	1.15
322.162	1.07
322.535	1.15
322.908	1.17
323.281	1.12
323.654	1.18
324.027	1.13
324.4	1.1
324.773	1.16
325.145	1.2
325.518	1.06
325.891	1.11
326.264	1.15
326.636	1.15
327.009	1.16
327.382	1.14
327.754	1.14
328.127	1.12
328.499	1.25
328.872	1.18
329.244	1.18
329.616	1.15
329.989	1.16
330.361	1.19
330.733	1.14
331.106	1.14
331.478	1.22
331.85	1.14
332.222	1.13
332.594	1.18
332.966	1.21
333.338	1.26
333.71	1.22
334.082	1.26
334.454	1.16
334.826	1.21
335.197	1.21
335.569	1.24
335.941	1.13
336.312	1.23
336.684	1.17
337.056	1.21
337.427	1.28
337.799	1.25
338.17	1.27
338.542	1.27
338.913	1.21
339.284	1.31
339.656	1.22
340.027	1.23
340.398	1.25
340.769	1.26
341.141	1.31
341.512	1.22
341.883	1.29
342.254	1.28
342.625	1.31
342.996	1.22
343.367	1.28
343.738	1.28
344.108	1.31
344.479	1.4
344.85	1.24
345.221	1.34
345.591	1.22
345.962	1.31
346.333	1.33
346.703	1.27
347.074	1.38
347.444	1.28
347.815	1.26
348.185	1.35
348.556	1.22
348.926	1.27
349.296	1.23
349.666	1.3
350.037	1.17
350.407	1.2
350.777	1.3
351.147	1.33
351.517	1.21
351.887	1.23
352.257	1.45
352.627	1.29
352.997	1.29
353.367	1.42
353.737	1.38
354.106	1.36
354.476	1.29
354.846	1.49
355.216	1.36
355.585	1.51
355.955	1.32
356.324	1.45
356.694	1.37
357.063	1.32
357.433	1.36
357.802	1.4
358.171	1.45
358.541	1.41
358.91	1.47
359.279	1.53
359.648	1.39
360.017	1.53
360.387	1.48
360.756	1.4
361.125	1.51
361.494	1.45
361.863	1.48
362.231	1.51
362.6	1.49
362.969	1.52
363.338	1.39
363.707	1.63
364.075	1.57
364.444	1.42
364.813	1.56
365.181	1.69
365.55	1.5
365.918	1.63
366.287	1.57
366.655	1.61
367.024	1.6
367.392	1.61
367.76	1.58
368.128	1.57
368.497	1.46
368.865	1.58
369.233	1.48
369.601	1.42
369.969	1.55
370.337	1.55
370.705	1.54
371.073	1.67
371.441	1.56
371.809	1.51
372.177	1.48
372.544	1.55
372.912	1.6
373.28	1.6
373.647	1.61
374.015	1.64
374.383	1.96
374.75	1.73
375.118	1.72
375.485	1.69
375.853	1.75
376.22	1.68
376.587	1.63
376.955	1.81
377.322	1.79
377.689	1.52
378.056	1.56
378.423	1.53
378.79	1.5
379.157	1.57
379.524	1.59
379.891	1.48
380.258	1.88
380.625	1.46
380.992	1.71
381.359	1.71
381.726	1.71
382.092	1.52
382.459	1.58
382.826	1.53
383.192	1.64
383.559	1.55
383.925	1.68
384.292	1.53
384.658	1.64
385.025	1.64
385.391	1.95
385.757	1.86
386.123	1.69
386.49	1.66
386.856	1.6
387.222	1.64
387.588	1.66
387.954	1.82
388.32	1.84
388.686	1.48
389.052	1.55
389.418	1.77
389.784	1.48
390.15	1.95
390.515	1.59
390.881	1.72
391.247	1.46
391.613	1.67
391.978	1.57
392.344	1.59
392.709	1.67
393.075	1.69
393.44	1.69
393.806	1.67
394.171	1.41
394.536	1.5
394.902	1.64
395.267	1.6
395.632	1.53
395.997	1.51
396.362	1.6
396.727	1.66
397.092	1.57
397.457	1.5
397.822	1.56
398.187	1.58
398.552	1.56
398.917	1.69
399.282	1.5
399.646	1.65
400.011	1.79
400.376	1.44
400.74	1.64
401.105	1.48
401.47	1.55
401.834	1.52
402.199	1.5
402.563	1.63
402.927	1.49
403.292	1.56
403.656	1.52
404.02	1.56
404.384	1.84
404.749	1.62
405.113	1.61
405.477	1.58
405.841	1.53
406.205	1.66
406.569	1.57
406.933	1.44
407.296	1.53
407.66	1.66
408.024	1.64
408.388	1.72
408.752	1.59
409.115	1.55
409.479	1.53
409.842	1.51
410.206	1.56
410.569	1.46
410.933	1.63
411.296	1.44
411.66	1.63
412.023	1.48
412.386	1.53
412.749	1.36
413.113	1.58
413.476	1.45
413.839	1.53
414.202	1.49
414.565	1.48
414.928	1.49
415.291	1.62
415.654	1.36
416.017	1.48
416.38	1.5
416.742	1.42
417.105	1.38
417.468	1.41
417.83	1.56
418.193	1.72
418.556	1.49
418.918	1.37
419.281	1.41
419.643	1.73
420.005	1.35
420.368	1.34
420.73	1.3
421.092	1.44
421.455	1.58
421.817	1.39
422.179	1.4
422.541	1.59
422.903	1.57
423.265	1.55
423.627	1.5
423.989	1.4
424.351	1.46
424.713	1.5
425.075	1.49
425.436	1.46
425.798	1.46
426.16	1.55
426.521	1.47
426.883	1.52
427.245	1.49
427.606	1.48
427.967	1.36
428.329	1.45
428.69	1.45
429.052	1.4
429.413	1.5
429.774	1.54
430.135	1.59
430.497	1.53
430.858	1.41
431.219	1.43
431.58	1.39
431.941	1.4
432.302	1.42
432.663	1.44
433.024	1.55
433.384	1.56
433.745	1.39
434.106	1.51
434.467	1.42
434.827	1.38
435.188	1.4
435.548	1.47
435.909	1.36
436.269	1.43
436.63	1.29
436.99	1.45
437.351	1.34
437.711	1.46
438.071	1.33
438.431	1.33
438.792	1.37
439.152	1.35
439.512	1.35
439.872	1.29
440.232	1.37
440.592	1.36
440.952	1.35
441.312	1.32
441.671	1.36
442.031	1.31
442.391	1.29
442.751	1.35
443.11	1.35
443.47	1.24
443.83	1.26
444.189	1.28
444.549	1.26
444.908	1.23
445.267	1.26
445.627	1.21
445.986	1.19
446.345	1.17
446.705	1.22
447.064	1.2
447.423	1.22
447.782	1.2
448.141	1.21
448.5	1.15
448.859	1.18
449.218	1.16
449.577	1.2
449.936	1.18
450.295	1.17
450.653	1.15
451.012	1.14
451.371	1.1
451.729	1.1
452.088	1.12
452.447	1.14
452.805	1.11
453.163	1.09
453.522	1.07
453.88	1.07
454.239	1.07
454.597	1.04
454.955	1.02
455.313	1.03
455.671	1.04
456.029	1.04
456.388	0.99
456.746	0.99
457.104	0.99
457.461	0.97
457.819	0.96
458.177	0.96
458.535	0.93
458.893	0.92
459.25	0.92
459.608	0.91
459.966	0.89
460.323	0.87
460.681	0.85
461.038	0.86
461.396	0.84
461.753	0.82
462.111	0.83
462.468	0.8
462.825	0.8
463.182	0.8
463.54	0.76
463.897	0.78
464.254	0.77
464.611	0.74
464.968	0.75
465.325	0.73
465.682	0.74
466.039	0.72
466.395	0.71
466.752	0.69
467.109	0.68
467.466	0.67
467.822	0.65
468.179	0.65
468.535	0.65
468.892	0.63
469.248	0.61
469.605	0.61
469.961	0.61
470.318	0.6
470.674	0.59
471.03	0.57
471.386	0.57
471.743	0.55
472.099	0.55
472.455	0.54
472.811	0.54
473.167	0.52
473.523	0.51
473.879	0.51
474.235	0.5
474.59	0.49
474.946	0.48
475.302	0.48
475.657	0.46
476.013	0.46
476.369	0.45
476.724	0.45
477.08	0.44
477.435	0.43
477.791	0.43
478.146	0.43
478.501	0.42
478.857	0.41
479.212	0.4
479.567	0.39
479.922	0.38
480.277	0.38
480.632	0.37
480.987	0.37
481.342	0.36
481.697	0.35
482.052	0.35
482.407	0.35
482.762	0.34
483.116	0.33
483.471	0.32
483.826	0.32
484.18	0.31
484.535	0.31
484.89	0.31
485.244	0.3
485.598	0.3
485.953	0.29
486.307	0.28
486.661	0.28
487.016	0.27
487.37	0.28
487.724	0.27
488.078	0.27
488.432	0.26
488.786	0.26
489.14	0.26
489.494	0.25
489.848	0.24
490.202	0.24
490.556	0.24
490.91	0.24
491.263	0.23
491.617	0.23
491.971	0.23
492.324	0.22
492.678	0.23
493.031	0.22
493.385	0.22
493.738	0.21
494.091	0.22
494.445	0.21
494.798	0.21
495.151	0.21
495.504	0.2
495.857	0.2
496.21	0.2
496.564	0.19
496.916	0.2
497.269	0.19
497.622	0.2
497.975	0.18
498.328	0.19
498.681	0.19
499.033	0.18
499.386	0.18
499.739	0.18
500.091	0.17
500.444	0.18
500.796	0.18
501.149	0.17
501.501	0.17
501.854	0.17
502.206	0.16
502.558	0.17
502.91	0.17
503.263	0.16
503.615	0.16
503.967	0.16
504.319	0.16
504.671	0.16
505.023	0.15
505.375	0.15
505.726	0.15
506.078	0.15
506.43	0.15
506.782	0.14
507.133	0.14
507.485	0.15
507.837	0.16
508.188	0.15
508.54	0.15
508.891	0.16
509.243	0.14
509.594	0.15
509.945	0.15
510.296	0.15
510.648	0.14
510.999	0.14
511.35	0.14
511.701	0.15
512.052	0.14
512.403	0.14
512.754	0.14
513.105	0.14
513.456	0.13
513.807	0.13
514.157	0.14
514.508	0.14
514.859	0.13
515.209	0.14
515.56	0.14
515.91	0.13
516.261	0.14
516.611	0.13
516.962	0.14
517.312	0.14
517.662	0.13
518.013	0.13
518.363	0.14
518.713	0.13
519.063	0.14
519.413	0.14
519.763	0.13
520.113	0.13
520.463	0.14
520.813	0.14
521.163	0.14
521.512	0.13
521.862	0.14
522.212	0.14
522.562	0.13
522.911	0.13
523.261	0.13
523.61	0.14
523.96	0.14
524.309	0.14
524.658	0.14
525.008	0.13
525.357	0.13
525.706	0.14
526.056	0.13
526.405	0.14
526.754	0.14
527.103	0.13
527.452	0.14
527.801	0.14
528.15	0.14
528.499	0.14
528.847	0.14
529.196	0.14
529.545	0.14
529.893	0.14
530.242	0.14
530.591	0.14
530.939	0.15
531.288	0.15
531.636	0.14
531.985	0.14
532.333	0.14
532.681	0.14
533.029	0.14
533.378	0.14
533.726	0.14
534.074	0.14
534.422	0.14
534.77	0.15
535.118	0.14
535.466	0.14
535.814	0.14
536.162	0.14
536.509	0.14
536.857	0.14
537.205	0.15
537.552	0.14
537.9	0.15
538.248	0.14
538.595	0.14
538.943	0.14
539.29	0.14
539.637	0.15
539.985	0.14
540.332	0.14
540.679	0.14
541.026	0.13
541.373	0.14
541.721	0.13
542.068	0.13
542.415	0.14
542.762	0.13
543.108	0.13
543.455	0.13
543.802	0.13
544.149	0.13
544.496	0.13
544.842	0.13
545.189	0.13
545.535	0.13
545.882	0.14
546.228	0.13
546.575	0.12
546.921	0.13
547.267	0.13
547.614	0.13
547.96	0.13
548.306	0.13
548.652	0.13
548.998	0.14
549.344	0.13
549.69	0.13
550.036	0.13
550.382	0.13
550.728	0.13
551.074	0.13
551.42	0.14
551.765	0.14
552.111	0.14
552.457	0.14
552.802	0.14
553.148	0.13
553.493	0.14
553.839	0.14
554.184	0.14
554.529	0.13
554.875	0.15
555.22	0.14
555.565	0.15
555.91	0.13
556.255	0.15
556.6	0.14
556.945	0.13
557.29	0.14
557.635	0.14
557.98	0.14
558.325	0.14
558.67	0.15
559.014	0.14
559.359	0.14
559.704	0.14
560.048	0.13
560.393	0.14
560.737	0.13
561.082	0.14
561.426	0.14
561.77	0.14
562.115	0.13
562.459	0.13
562.803	0.14
563.147	0.14
563.491	0.13
563.835	0.14
564.179	0.14
564.523	0.14
564.867	0.13
565.211	0.14
565.555	0.14
565.899	0.15
566.242	0.14
566.586	0.13
566.93	0.14
567.273	0.14
567.617	0.14
567.96	0.14
568.304	0.14
568.647	0.14
568.99	0.14
569.334	0.15
569.677	0.14
570.02	0.14
570.363	0.14
570.706	0.14
571.049	0.14
571.392	0.14
571.735	0.14
572.078	0.14
572.421	0.15
572.764	0.14
573.106	0.14
573.449	0.14
573.792	0.13
574.134	0.14
574.477	0.14
574.819	0.14
575.162	0.13
575.504	0.13
575.847	0.14
576.189	0.14
576.531	0.14
576.873	0.14
577.215	0.14
577.558	0.14
577.9	0.13
578.242	0.14
578.584	0.14
578.926	0.13
579.267	0.13
579.609	0.15
579.951	0.13
580.293	0.14
580.634	0.15
580.976	0.14
581.318	0.14
581.659	0.13
582.001	0.14
582.342	0.14
582.683	0.14
583.025	0.14
583.366	0.13
583.707	0.14
584.049	0.14
584.39	0.13
584.731	0.13
585.072	0.13
585.413	0.14
585.754	0.14
586.095	0.14
586.435	0.13
586.776	0.14
587.117	0.13
587.458	0.14
587.798	0.13
588.139	0.14
588.48	0.14
588.82	0.13
589.161	0.13
589.501	0.13
589.841	0.13
590.182	0.14
590.522	0.13
590.862	0.14
591.202	0.14
591.542	0.14
591.882	0.14
592.222	0.14
592.562	0.14
592.902	0.14
593.242	0.13
593.582	0.14
593.922	0.14
594.261	0.13
594.601	0.14
594.941	0.13
595.28	0.13
595.62	0.14
595.959	0.13
596.299	0.13
596.638	0.13
596.977	0.13
597.317	0.14
597.656	0.14
597.995	0.14
598.334	0.15
598.673	0.14
599.012	0.13
599.351	0.13
599.69	0.14
600.029	0.14
600.368	0.14
600.707	0.14
601.046	0.14
601.384	0.15
601.723	0.13
602.061	0.13
602.4	0.14
602.738	0.14
603.077	0.14
603.415	0.13
603.754	0.14
604.092	0.14
604.43	0.13
604.768	0.13
605.107	0.14
605.445	0.13
605.783	0.13
606.121	0.12
606.459	0.13
606.796	0.13
607.134	0.12
607.472	0.13
607.81	0.13
608.148	0.13
608.485	0.13
608.823	0.13
609.16	0.13
609.498	0.13
609.835	0.13
610.173	0.12
610.51	0.14
610.847	0.14
611.185	0.14
611.522	0.14
611.859	0.14
612.196	0.13
612.533	0.14
612.87	0.14
613.207	0.15
613.544	0.14
613.881	0.15
614.217	0.14
614.554	0.14
614.891	0.14
615.228	0.14
615.564	0.15
615.901	0.15
616.237	0.14
616.574	0.15
616.91	0.14
617.246	0.14
617.583	0.14
617.919	0.14
618.255	0.14
618.591	0.14
618.927	0.15
619.263	0.14
619.599	0.14
619.935	0.14
620.271	0.14
620.607	0.14
620.943	0.14
621.279	0.15
621.614	0.14
621.95	0.14
622.286	0.13
622.621	0.13
622.957	0.13
623.292	0.13
623.627	0.13
623.963	0.13
624.298	0.13
624.633	0.13
624.968	0.13
625.304	0.13
625.639	0.13
625.974	0.13
626.309	0.12
626.644	0.13
626.979	0.12
627.313	0.13
627.648	0.13
627.983	0.13
628.318	0.12
628.652	0.12
628.987	0.12
629.321	0.12
629.656	0.12
629.99	0.12
630.325	0.12
630.659	0.12
630.993	0.12
631.327	0.12
631.662	0.12
631.996	0.11
632.33	0.12
632.664	0.12
632.998	0.12
633.332	0.12
633.666	0.12
633.999	0.12
634.333	0.12
634.667	0.12
635.001	0.12
635.334	0.12
635.668	0.12
636.001	0.11
636.335	0.11
636.668	0.12
637.001	0.11
637.335	0.11
637.668	0.12
638.001	0.11
638.334	0.12
638.668	0.1
639.001	0.11
639.334	0.11
639.667	0.11
639.999	0.11
640.332	0.1
640.665	0.1
640.998	0.11
641.331	0.11
641.663	0.1
641.996	0.11
642.328	0.11
642.661	0.11
642.993	0.11
643.326	0.11
643.658	0.1
643.99	0.11
644.323	0.11
644.655	0.11
644.987	0.1
645.319	0.11
645.651	0.11
645.983	0.11
646.315	0.1
646.647	0.11
646.979	0.11
647.31	0.11
647.642	0.11
647.974	0.1
648.305	0.11
648.637	0.11
648.968	0.11
649.3	0.11
649.631	0.12
649.963	0.11
650.294	0.12
650.625	0.11
650.957	0.11
651.288	0.11
651.619	0.11
651.95	0.12
652.281	0.11
652.612	0.11
652.943	0.11
653.274	0.12
653.604	0.11
653.935	0.11
654.266	0.12
654.596	0.11
654.927	0.11
655.258	0.11
655.588	0.11
655.918	0.11
656.249	0.1
656.579	0.11
656.909	0.11
657.24	0.11
657.57	0.11
657.9	0.11
658.23	0.12
658.56	0.11
658.89	0.12
659.22	0.12
659.55	0.11
659.88	0.11
660.209	0.12
660.539	0.12
660.869	0.12
661.198	0.12
661.528	0.12
661.857	0.11
662.187	0.12
662.516	0.12
662.846	0.11
663.175	0.12
663.504	0.11
663.833	0.11
664.163	0.11
664.492	0.11
664.821	0.11
665.15	0.11
665.479	0.11
665.807	0.11
666.136	0.11
666.465	0.11
666.794	0.11
667.122	0.11
667.451	0.11
667.78	0.1
668.108	0.11
668.437	0.1
668.765	0.1
669.093	0.11
669.422	0.11
669.75	0.1
670.078	0.11
670.406	0.11
670.734	0.11
671.062	0.1
671.39	0.1
671.718	0.11
672.046	0.1
672.374	0.1
672.702	0.1
673.029	0.09
673.357	0.11
673.685	0.11
674.012	0.11
674.34	0.1
674.667	0.11
674.995	0.11
675.322	0.11
675.649	0.1
675.977	0.1
676.304	0.1
676.631	0.1
676.958	0.1
677.285	0.1
677.612	0.1
677.939	0.1
678.266	0.11
678.593	0.1
678.92	0.11
679.246	0.11
679.573	0.1
679.9	0.1
680.226	0.1
680.553	0.1
680.879	0.11
681.206	0.1
681.532	0.1
681.858	0.1
682.184	0.1
682.511	0.1
682.837	0.09
683.163	0.1
683.489	0.1
683.815	0.1
684.141	0.09
684.467	0.09
684.793	0.09
685.118	0.09
685.444	0.1
685.77	0.09
686.095	0.09
686.421	0.09
686.746	0.1
687.072	0.09
687.397	0.09
687.723	0.11
688.048	0.1
688.373	0.1
688.698	0.1
689.023	0.1
689.349	0.1
689.674	0.1
689.999	0.09
690.323	0.09
690.648	0.09
690.973	0.09
691.298	0.1
691.623	0.09
691.947	0.09
692.272	0.09
692.596	0.09
692.921	0.1
693.245	0.09
693.57	0.1
693.894	0.1
694.218	0.09
694.543	0.09
694.867	0.09
695.191	0.08
695.515	0.09
695.839	0.09
696.163	0.08
696.487	0.09
696.811	0.09
697.135	0.1
697.458	0.08
697.782	0.09
698.106	0.09
698.429	0.09
698.753	0.09
699.076	0.09
699.4	0.08
699.723	0.09
700.046	0.08
700.37	0.09
700.693	0.09
701.016	0.09
701.339	0.09
701.662	0.08
701.985	0.08
702.308	0.08
702.631	0.09
702.954	0.09
703.277	0.09
703.599	0.09
703.922	0.09
704.245	0.08
704.567	0.08
704.89	0.08
705.212	0.08
705.535	0.08
705.857	0.08
706.179	0.07
706.502	0.07
706.824	0.07
707.146	0.07
707.468	0.08
707.79	0.08
708.112	0.08
708.434	0.07
708.756	0.08
709.078	0.08
709.399	0.08
709.721	0.08
710.043	0.08
710.364	0.08
710.686	0.08
711.007	0.07
711.329	0.09
711.65	0.08
711.972	0.08
712.293	0.09
712.614	0.08
712.935	0.08
713.256	0.08
713.577	0.09
713.898	0.08
714.219	0.08
714.54	0.08
714.861	0.08
715.182	0.08
715.503	0.07
715.823	0.08
716.144	0.08
716.464	0.06
716.785	0.07
717.105	0.07
717.426	0.07
717.746	0.06
718.066	0.06
718.387	0.06
718.707	0.05
719.027	0.07
719.347	0.06
719.667	0.06
719.987	0.06
720.307	0.06
720.627	0.07
720.947	0.06
721.266	0.06
721.586	0.06
721.906	0.07
722.225	0.06
722.545	0.06
722.864	0.07
723.184	0.07
723.503	0.06
723.823	0.07
724.142	0.06
724.461	0.06
