Data from 12-12-AQDScycling_Absorbance__126__00126.txt Node

Date: Tue Dec 12 11:28:14 EST 2023
User: kyuminlee
Spectrometer: FLMS00943
Trigger mode: 0
Integration Time (sec): 1.000000E-1
Scans to average: 1
Electric dark correction enabled: true
Nonlinearity correction enabled: false
Boxcar width: 0
XAxis mode: Wavelengths
Number of Pixels in Spectrum: 2048
>>>>>Begin Spectral Data<<<<<
179.651	0.14
180.037	0.14
180.424	0.14
180.81	-0.12
181.197	0.39
181.583	-0
181.97	-0.59
182.356	-0
182.743	-0
183.129	-0.1
183.515	0.33
183.901	-2.28
184.288	-0
184.674	-0
185.06	-1.15
185.446	-0.2
185.832	-0
186.218	0.32
186.604	-0.08
186.99	-0
187.376	-0
187.762	0.07
188.148	0.19
188.534	-0.3
188.92	0.26
189.305	0.06
189.691	0.15
190.077	0.24
190.463	0.16
190.848	0.13
191.234	0.04
191.619	0.18
192.005	0.06
192.391	0.17
192.776	0.15
193.161	0.21
193.547	0.09
193.932	0.05
194.318	0.04
194.703	0.13
195.088	0.29
195.473	0.27
195.859	0.21
196.244	0.24
196.629	0.16
197.014	0.06
197.399	0.23
197.784	0.03
198.169	0.19
198.554	0.16
198.939	0.06
199.324	0.15
199.709	0.11
200.094	0.11
200.478	0.1
200.863	0.25
201.248	0.12
201.633	0.11
202.017	0.08
202.402	0.2
202.787	0.18
203.171	0.18
203.556	0.16
203.94	-0.04
204.325	0.19
204.709	0.27
205.093	0.13
205.478	0.18
205.862	0.1
206.246	0.25
206.631	0.12
207.015	0.16
207.399	0.07
207.783	0.11
208.167	0.13
208.551	0.34
208.935	0.22
209.319	0.15
209.703	0.1
210.087	0.33
210.471	0.16
210.855	0.06
211.239	0.14
211.623	0.37
212.007	0.17
212.39	0.31
212.774	0.27
213.158	0.01
213.541	0.27
213.925	0.24
214.309	0.31
214.692	0.37
215.076	0.18
215.459	0.16
215.842	0.25
216.226	0.28
216.609	0.26
216.993	0.17
217.376	0.36
217.759	0.17
218.142	0.34
218.525	0.34
218.909	0.2
219.292	0.34
219.675	0.4
220.058	0.44
220.441	0.55
220.824	0.53
221.207	0.61
221.59	0.47
221.973	0.53
222.355	0.55
222.738	0.71
223.121	0.56
223.504	0.65
223.886	0.73
224.269	0.84
224.652	0.69
225.034	0.83
225.417	0.88
225.799	0.7
226.182	0.85
226.564	0.79
226.947	0.87
227.329	0.87
227.711	0.9
228.094	1
228.476	0.92
228.858	0.84
229.24	0.74
229.623	0.91
230.005	0.81
230.387	0.87
230.769	0.78
231.151	0.93
231.533	0.9
231.915	0.95
232.297	0.99
232.679	1.09
233.061	0.97
233.442	0.97
233.824	1.06
234.206	1.03
234.588	1.03
234.969	1.05
235.351	0.89
235.733	1.08
236.114	1.13
236.496	1.17
236.877	1.21
237.259	1.04
237.64	1.08
238.022	0.97
238.403	1.04
238.784	0.97
239.165	1.01
239.547	1.18
239.928	1.16
240.309	1.11
240.69	1.04
241.071	1.05
241.452	1.14
241.834	0.96
242.215	1.11
242.595	1.11
242.976	1.1
243.357	1.18
243.738	1.1
244.119	1.37
244.5	1.31
244.881	1.33
245.261	1.26
245.642	1.19
246.023	1.2
246.403	1.27
246.784	1.18
247.164	1.25
247.545	1.23
247.925	1.31
248.306	1.14
248.686	1.31
249.067	1.33
249.447	1.28
249.827	1.5
250.207	1.41
250.588	1.31
250.968	1.4
251.348	1.36
251.728	1.39
252.108	1.47
252.488	1.4
252.868	1.43
253.248	1.3
253.628	1.46
254.008	1.41
254.388	1.24
254.768	1.29
255.147	1.28
255.527	1.38
255.907	1.43
256.287	1.32
256.666	1.36
257.046	1.41
257.425	1.54
257.805	1.32
258.184	1.39
258.564	1.4
258.943	1.43
259.323	1.59
259.702	1.49
260.081	1.42
260.461	1.37
260.84	1.4
261.219	1.65
261.598	1.53
261.977	1.43
262.356	1.58
262.736	1.48
263.115	1.58
263.494	1.38
263.873	1.57
264.251	1.59
264.63	1.55
265.009	1.47
265.388	1.5
265.767	1.41
266.145	1.49
266.524	1.38
266.903	1.4
267.281	1.46
267.66	1.45
268.039	1.4
268.417	1.36
268.796	1.45
269.174	1.35
269.552	1.37
269.931	1.43
270.309	1.38
270.687	1.46
271.066	1.36
271.444	1.42
271.822	1.31
272.2	1.46
272.578	1.34
272.956	1.41
273.334	1.36
273.712	1.37
274.09	1.32
274.468	1.35
274.846	1.27
275.224	1.38
275.602	1.37
275.98	1.48
276.357	1.4
276.735	1.41
277.113	1.43
277.49	1.37
277.868	1.29
278.246	1.4
278.623	1.29
279.001	1.31
279.378	1.5
279.756	1.37
280.133	1.58
280.51	1.5
280.888	1.4
281.265	1.33
281.642	1.46
282.019	1.54
282.396	1.55
282.773	1.53
283.151	1.7
283.528	1.65
283.905	1.41
284.282	1.62
284.659	1.68
285.035	1.45
285.412	1.48
285.789	1.44
286.166	1.4
286.543	1.46
286.919	1.44
287.296	1.39
287.673	1.68
288.049	1.46
288.426	1.64
288.802	1.49
289.179	1.36
289.555	1.51
289.932	1.48
290.308	1.32
290.684	1.42
291.061	1.28
291.437	1.47
291.813	1.45
292.189	1.36
292.565	1.27
292.942	1.37
293.318	1.38
293.694	1.47
294.07	1.25
294.446	1.32
294.822	1.41
295.197	1.36
295.573	1.52
295.949	1.43
296.325	1.4
296.701	1.48
297.076	1.54
297.452	1.54
297.828	1.48
298.203	1.57
298.579	1.28
298.954	1.31
299.33	1.22
299.705	1.36
300.081	1.37
300.456	1.3
300.831	1.27
301.206	1.21
301.582	1.27
301.957	1.21
302.332	1.26
302.707	1.15
303.082	1.13
303.457	1.17
303.832	1.1
304.207	1.06
304.582	1.12
304.957	1.07
305.332	1.06
305.707	1
306.082	1.04
306.456	1.03
306.831	0.99
307.206	0.96
307.58	0.96
307.955	0.89
308.33	0.89
308.704	0.89
309.079	0.82
309.453	0.83
309.828	0.85
310.202	0.8
310.576	0.82
310.951	0.78
311.325	0.76
311.699	0.73
312.073	0.72
312.447	0.74
312.821	0.73
313.196	0.74
313.57	0.69
313.944	0.67
314.317	0.67
314.691	0.68
315.065	0.64
315.439	0.65
315.813	0.66
316.187	0.64
316.56	0.64
316.934	0.64
317.308	0.63
317.681	0.62
318.055	0.64
318.428	0.6
318.802	0.61
319.175	0.59
319.549	0.61
319.922	0.59
320.295	0.58
320.669	0.6
321.042	0.59
321.415	0.6
321.788	0.58
322.162	0.55
322.535	0.56
322.908	0.55
323.281	0.55
323.654	0.56
324.027	0.55
324.4	0.54
324.773	0.57
325.145	0.54
325.518	0.54
325.891	0.55
326.264	0.55
326.636	0.55
327.009	0.56
327.382	0.58
327.754	0.56
328.127	0.58
328.499	0.57
328.872	0.58
329.244	0.57
329.616	0.56
329.989	0.58
330.361	0.61
330.733	0.56
331.106	0.58
331.478	0.6
331.85	0.61
332.222	0.6
332.594	0.64
332.966	0.64
333.338	0.67
333.71	0.64
334.082	0.69
334.454	0.66
334.826	0.66
335.197	0.69
335.569	0.7
335.941	0.71
336.312	0.7
336.684	0.72
337.056	0.73
337.427	0.75
337.799	0.77
338.17	0.72
338.542	0.76
338.913	0.78
339.284	0.78
339.656	0.79
340.027	0.79
340.398	0.83
340.769	0.83
341.141	0.84
341.512	0.85
341.883	0.86
342.254	0.88
342.625	0.87
342.996	0.89
343.367	0.9
343.738	0.94
344.108	0.93
344.479	0.96
344.85	0.93
345.221	1
345.591	0.96
345.962	0.96
346.333	1.03
346.703	0.95
347.074	1.04
347.444	1.02
347.815	1.01
348.185	1.02
348.556	1.03
348.926	1.07
349.296	1.08
349.666	1.12
350.037	1.08
350.407	1.14
350.777	1.18
351.147	1.23
351.517	1.3
351.887	1.29
352.257	1.21
352.627	1.2
352.997	1.19
353.367	1.3
353.737	1.41
354.106	1.34
354.476	1.26
354.846	1.37
355.216	1.37
355.585	1.39
355.955	1.39
356.324	1.37
356.694	1.36
357.063	1.35
357.433	1.28
357.802	1.4
358.171	1.5
358.541	1.54
358.91	1.55
359.279	1.66
359.648	1.41
360.017	1.47
360.387	1.53
360.756	1.39
361.125	1.5
361.494	1.61
361.863	1.48
362.231	1.61
362.6	1.51
362.969	1.52
363.338	1.52
363.707	1.69
364.075	1.78
364.444	1.47
364.813	1.5
365.181	1.47
365.55	1.56
365.918	1.64
366.287	1.58
366.655	1.54
367.024	1.72
367.392	1.57
367.76	1.6
368.128	1.54
368.497	1.51
368.865	1.63
369.233	1.52
369.601	1.64
369.969	1.62
370.337	1.56
370.705	1.69
371.073	1.66
371.441	1.54
371.809	1.5
372.177	1.44
372.544	1.65
372.912	1.69
373.28	1.57
373.647	1.58
374.015	1.76
374.383	1.8
374.75	1.87
375.118	1.52
375.485	1.61
375.853	1.73
376.22	1.48
376.587	1.49
376.955	1.7
377.322	1.65
377.689	1.66
378.056	1.49
378.423	1.45
378.79	1.62
379.157	1.63
379.524	1.55
379.891	1.55
380.258	1.62
380.625	1.68
380.992	1.44
381.359	1.53
381.726	1.56
382.092	1.47
382.459	1.59
382.826	1.57
383.192	1.64
383.559	1.5
383.925	1.71
384.292	1.6
384.658	1.55
385.025	1.56
385.391	1.55
385.757	1.56
386.123	1.62
386.49	1.44
386.856	1.55
387.222	1.7
387.588	1.45
387.954	1.87
388.32	1.7
388.686	1.55
389.052	1.5
389.418	1.75
389.784	1.46
390.15	1.62
390.515	1.49
390.881	1.59
391.247	1.55
391.613	1.64
391.978	1.49
392.344	1.82
392.709	1.58
393.075	1.64
393.44	1.67
393.806	1.57
394.171	1.53
394.536	1.74
394.902	1.5
395.267	1.51
395.632	1.44
395.997	1.48
396.362	1.46
396.727	1.61
397.092	1.5
397.457	1.51
397.822	1.45
398.187	1.57
398.552	1.55
398.917	1.72
399.282	1.57
399.646	1.57
400.011	1.83
400.376	1.48
400.74	1.61
401.105	1.6
401.47	1.54
401.834	1.5
402.199	1.69
402.563	1.69
402.927	1.51
403.292	1.55
403.656	1.67
404.02	1.66
404.384	1.8
404.749	1.64
405.113	1.6
405.477	1.71
405.841	1.75
406.205	1.63
406.569	1.55
406.933	1.59
407.296	1.59
407.66	1.59
408.024	1.61
408.388	1.65
408.752	1.61
409.115	1.6
409.479	1.72
409.842	1.55
410.206	1.57
410.569	1.38
410.933	1.53
411.296	1.33
411.66	1.68
412.023	1.43
412.386	1.55
412.749	1.44
413.113	1.71
413.476	1.52
413.839	1.49
414.202	1.48
414.565	1.53
414.928	1.45
415.291	1.49
415.654	1.62
416.017	1.6
416.38	1.49
416.742	1.52
417.105	1.47
417.468	1.41
417.83	1.52
418.193	1.66
418.556	1.47
418.918	1.59
419.281	1.53
419.643	1.68
420.005	1.56
420.368	1.5
420.73	1.52
421.092	1.7
421.455	1.65
421.817	1.39
422.179	1.54
422.541	1.56
422.903	1.63
423.265	1.67
423.627	1.61
423.989	1.54
424.351	1.53
424.713	1.63
425.075	1.53
425.436	1.52
425.798	1.54
426.16	1.73
426.521	1.7
426.883	1.53
427.245	1.54
427.606	1.48
427.967	1.39
428.329	1.43
428.69	1.67
429.052	1.42
429.413	1.75
429.774	1.64
430.135	1.52
430.497	1.55
430.858	1.59
431.219	1.73
431.58	1.5
431.941	1.5
432.302	1.51
432.663	1.49
433.024	1.73
433.384	1.49
433.745	1.53
434.106	1.71
434.467	1.61
434.827	1.5
435.188	1.49
435.548	1.56
435.909	1.56
436.269	1.65
436.63	1.5
436.99	1.61
437.351	1.42
437.711	1.52
438.071	1.59
438.431	1.42
438.792	1.56
439.152	1.48
439.512	1.44
439.872	1.43
440.232	1.51
440.592	1.54
440.952	1.54
441.312	1.43
441.671	1.49
442.031	1.52
442.391	1.47
442.751	1.57
443.11	1.47
443.47	1.4
443.83	1.44
444.189	1.38
444.549	1.45
444.908	1.43
445.267	1.43
445.627	1.43
445.986	1.42
446.345	1.4
446.705	1.45
447.064	1.41
447.423	1.39
447.782	1.43
448.141	1.43
448.5	1.3
448.859	1.38
449.218	1.38
449.577	1.39
449.936	1.34
450.295	1.38
450.653	1.34
451.012	1.35
451.371	1.35
451.729	1.34
452.088	1.33
452.447	1.31
452.805	1.34
453.163	1.34
453.522	1.32
453.88	1.3
454.239	1.3
454.597	1.22
454.955	1.23
455.313	1.24
455.671	1.23
456.029	1.23
456.388	1.21
456.746	1.18
457.104	1.17
457.461	1.16
457.819	1.17
458.177	1.14
458.535	1.13
458.893	1.12
459.25	1.09
459.608	1.09
459.966	1.03
460.323	1.06
460.681	1.04
461.038	1.02
461.396	1.01
461.753	0.99
462.111	0.99
462.468	0.95
462.825	0.96
463.182	0.93
463.54	0.91
463.897	0.91
464.254	0.91
464.611	0.9
464.968	0.86
465.325	0.87
465.682	0.85
466.039	0.82
466.395	0.81
466.752	0.81
467.109	0.8
467.466	0.79
467.822	0.77
468.179	0.76
468.535	0.74
468.892	0.74
469.248	0.73
469.605	0.71
469.961	0.7
470.318	0.69
470.674	0.67
471.03	0.67
471.386	0.66
471.743	0.63
472.099	0.64
472.455	0.62
472.811	0.61
473.167	0.61
473.523	0.58
473.879	0.58
474.235	0.56
474.59	0.55
474.946	0.55
475.302	0.53
475.657	0.52
476.013	0.51
476.369	0.5
476.724	0.49
477.08	0.48
477.435	0.48
477.791	0.46
478.146	0.46
478.501	0.44
478.857	0.45
479.212	0.43
479.567	0.43
479.922	0.41
480.277	0.41
480.632	0.39
480.987	0.39
481.342	0.38
481.697	0.37
482.052	0.36
482.407	0.35
482.762	0.35
483.116	0.34
483.471	0.32
483.826	0.31
484.18	0.31
484.535	0.3
484.89	0.3
485.244	0.3
485.598	0.28
485.953	0.28
486.307	0.27
486.661	0.27
487.016	0.26
487.37	0.25
487.724	0.25
488.078	0.24
488.432	0.24
488.786	0.24
489.14	0.23
489.494	0.22
489.848	0.22
490.202	0.21
490.556	0.21
490.91	0.2
491.263	0.2
491.617	0.2
491.971	0.2
492.324	0.19
492.678	0.18
493.031	0.19
493.385	0.18
493.738	0.17
494.091	0.16
494.445	0.16
494.798	0.16
495.151	0.16
495.504	0.15
495.857	0.15
496.21	0.15
496.564	0.14
496.916	0.15
497.269	0.13
497.622	0.14
497.975	0.14
498.328	0.13
498.681	0.13
499.033	0.12
499.386	0.12
499.739	0.12
500.091	0.11
500.444	0.11
500.796	0.11
501.149	0.1
501.501	0.1
501.854	0.1
502.206	0.1
502.558	0.1
502.91	0.1
503.263	0.1
503.615	0.09
503.967	0.1
504.319	0.09
504.671	0.09
505.023	0.08
505.375	0.08
505.726	0.08
506.078	0.08
506.43	0.07
506.782	0.07
507.133	0.07
507.485	0.07
507.837	0.07
508.188	0.07
508.54	0.07
508.891	0.07
509.243	0.06
509.594	0.07
509.945	0.06
510.296	0.06
510.648	0.06
510.999	0.06
511.35	0.06
511.701	0.06
512.052	0.06
512.403	0.06
512.754	0.05
513.105	0.05
513.456	0.05
513.807	0.05
514.157	0.05
514.508	0.04
514.859	0.04
515.209	0.03
515.56	0.05
515.91	0.04
516.261	0.05
516.611	0.04
516.962	0.04
517.312	0.04
517.662	0.04
518.013	0.04
518.363	0.04
518.713	0.04
519.063	0.03
519.413	0.04
519.763	0.03
520.113	0.04
520.463	0.04
520.813	0.05
521.163	0.04
521.512	0.04
521.862	0.04
522.212	0.04
522.562	0.04
522.911	0.04
523.261	0.03
523.61	0.03
523.96	0.03
524.309	0.04
524.658	0.03
525.008	0.03
525.357	0.03
525.706	0.04
526.056	0.03
526.405	0.03
526.754	0.03
527.103	0.03
527.452	0.03
527.801	0.03
528.15	0.03
528.499	0.03
528.847	0.03
529.196	0.03
529.545	0.04
529.893	0.04
530.242	0.04
530.591	0.04
530.939	0.04
531.288	0.04
531.636	0.04
531.985	0.03
532.333	0.03
532.681	0.03
533.029	0.03
533.378	0.02
533.726	0.03
534.074	0.03
534.422	0.02
534.77	0.03
535.118	0.03
535.466	0.03
535.814	0.02
536.162	0.03
536.509	0.03
536.857	0.03
537.205	0.03
537.552	0.03
537.9	0.03
538.248	0.02
538.595	0.03
538.943	0.02
539.29	0.02
539.637	0.02
539.985	0.02
540.332	0.02
540.679	0.02
541.026	0.01
541.373	0.02
541.721	0.01
542.068	0.01
542.415	0.02
542.762	0.01
543.108	0.01
543.455	0
543.802	0.01
544.149	0.01
544.496	0.01
544.842	0.01
545.189	0
545.535	0.01
545.882	0.02
546.228	0.01
546.575	0.01
546.921	0
547.267	0.01
547.614	0.01
547.96	0.01
548.306	0.01
548.652	0
548.998	0.01
549.344	0.02
549.69	0.02
550.036	0.02
550.382	0.02
550.728	0.01
551.074	0.02
551.42	0.02
551.765	0.02
552.111	0.02
552.457	0.02
552.802	0.02
553.148	0.02
553.493	0.01
553.839	0.02
554.184	0.02
554.529	0.01
554.875	0.02
555.22	0.03
555.565	0.02
555.91	0.02
556.255	0.02
556.6	0.02
556.945	0.01
557.29	0.01
557.635	0.02
557.98	0.01
558.325	0.01
558.67	0.02
559.014	0.02
559.359	0.01
559.704	0.01
560.048	0.01
560.393	0.01
560.737	0.01
561.082	0.01
561.426	0
561.77	0.01
562.115	0
562.459	0.01
562.803	0.01
563.147	0.01
563.491	0.01
563.835	0.01
564.179	0.01
564.523	0
564.867	0.01
565.211	0.01
565.555	0.01
565.899	0.02
566.242	0.01
566.586	0.01
566.93	0.01
567.273	0.02
567.617	0.01
567.96	0.02
568.304	0.01
568.647	0.01
568.99	0.02
569.334	0.02
569.677	0.01
570.02	0.02
570.363	0.02
570.706	0.01
571.049	0.02
571.392	0.01
571.735	0.01
572.078	0.02
572.421	0.02
572.764	0.01
573.106	0.02
573.449	0.01
573.792	0.01
574.134	0.01
574.477	0.02
574.819	0.02
575.162	0.01
575.504	0.01
575.847	0.02
576.189	0.01
576.531	0.02
576.873	0.02
577.215	0.02
577.558	0.02
577.9	0.01
578.242	0.01
578.584	0.01
578.926	0.01
579.267	0.01
579.609	0.01
579.951	0
580.293	0
580.634	0.01
580.976	0.01
581.318	0
581.659	0
582.001	-0.01
582.342	-0
582.683	0.01
583.025	0
583.366	0
583.707	0.01
584.049	0
584.39	0.01
584.731	0
585.072	0
585.413	0.01
585.754	0.01
586.095	0.02
586.435	0.02
586.776	0.01
587.117	0.01
587.458	0.01
587.798	0.01
588.139	0.01
588.48	0
588.82	0.01
589.161	0.01
589.501	0
589.841	0
590.182	-0
590.522	0
590.862	0.01
591.202	0.01
591.542	0
591.882	0.01
592.222	0.01
592.562	0
592.902	0.01
593.242	0.01
593.582	0.02
593.922	0.01
594.261	0.01
594.601	0.01
594.941	0.01
595.28	0.01
595.62	0.01
595.959	0
596.299	0.01
596.638	0
596.977	0.01
597.317	0.02
597.656	0.01
597.995	0
598.334	0.01
598.673	0.01
599.012	0
599.351	0.02
599.69	0
600.029	0.01
600.368	0.01
600.707	0.01
601.046	0
601.384	0.01
601.723	0.01
602.061	0
602.4	0.01
602.738	0.01
603.077	0.01
603.415	0
603.754	0.01
604.092	0.01
604.43	0
604.768	0.01
605.107	0.01
605.445	0.01
605.783	0.01
606.121	0.01
606.459	0.01
606.796	0.01
607.134	0
607.472	0.01
607.81	0.01
608.148	0
608.485	0.01
608.823	0.01
609.16	0.01
609.498	0.01
609.835	0.01
610.173	0.01
610.51	0.01
610.847	0.01
611.185	0.02
611.522	0.01
611.859	0.02
612.196	0.02
612.533	0.02
612.87	0.01
613.207	0.02
613.544	0.02
613.881	0.03
614.217	0.02
614.554	0.02
614.891	0.02
615.228	0.02
615.564	0.03
615.901	0.02
616.237	0.02
616.574	0.03
616.91	0.03
617.246	0.02
617.583	0.03
617.919	0.02
618.255	0.02
618.591	0.02
618.927	0.03
619.263	0.03
619.599	0.03
619.935	0.03
620.271	0.03
620.607	0.03
620.943	0.02
621.279	0.03
621.614	0.02
621.95	0.03
622.286	0.02
622.621	0.02
622.957	0.02
623.292	0.01
623.627	0.02
623.963	0.02
624.298	0.02
624.633	0.01
624.968	0.01
625.304	0.01
625.639	0.01
625.974	0.01
626.309	0.01
626.644	0.01
626.979	0.02
627.313	0.02
627.648	0.01
627.983	0.01
628.318	0.01
628.652	0.01
628.987	0.01
629.321	0.02
629.656	0.01
629.99	0.01
630.325	0.02
630.659	0.02
630.993	0.01
631.327	0.02
631.662	0.01
631.996	0.01
632.33	0.01
632.664	0.01
632.998	0.01
633.332	0.01
633.666	0.01
633.999	0.01
634.333	0.01
634.667	0.01
635.001	0
635.334	0.01
635.668	0.01
636.001	0.01
636.335	0.01
636.668	0.01
637.001	0
637.335	0.01
637.668	0.01
638.001	0
638.334	0.01
638.668	0
639.001	0
639.334	0.01
639.667	0.01
639.999	0.01
640.332	0.01
640.665	0.01
640.998	0.01
641.331	0.01
641.663	0.01
641.996	0.01
642.328	0.01
642.661	0.01
642.993	0.01
643.326	0.02
643.658	0.01
643.99	0.01
644.323	0.01
644.655	0.01
644.987	0.02
645.319	0.02
645.651	0.02
645.983	0.02
646.315	0.02
646.647	0.02
646.979	0.02
647.31	0.02
647.642	0.02
647.974	0.02
648.305	0.02
648.637	0.02
648.968	0.03
649.3	0.03
649.631	0.03
649.963	0.02
650.294	0.02
650.625	0.02
650.957	0.02
651.288	0.02
651.619	0.02
651.95	0.03
652.281	0.02
652.612	0.02
652.943	0.02
653.274	0.03
653.604	0.02
653.935	0.02
654.266	0.02
654.596	0.02
654.927	0.02
655.258	0.02
655.588	0.03
655.918	0.02
656.249	0
656.579	0.02
656.909	0.02
657.24	0.01
657.57	0.02
657.9	0.02
658.23	0.02
658.56	0.03
658.89	0.03
659.22	0.02
659.55	0.02
659.88	0.03
660.209	0.03
660.539	0.03
660.869	0.03
661.198	0.03
661.528	0.02
661.857	0.03
662.187	0.03
662.516	0.03
662.846	0.02
663.175	0.03
663.504	0.03
663.833	0.02
664.163	0.03
664.492	0.02
664.821	0.03
665.15	0.02
665.479	0.03
665.807	0.02
666.136	0.02
666.465	0.02
666.794	0.02
667.122	0.02
667.451	0.02
667.78	0.02
668.108	0.02
668.437	0.02
668.765	0.02
669.093	0.03
669.422	0.02
669.75	0.03
670.078	0.02
670.406	0.02
670.734	0.02
671.062	0.03
671.39	0.02
671.718	0.03
672.046	0.02
672.374	0.02
672.702	0.02
673.029	0.02
673.357	0.03
673.685	0.02
674.012	0.03
674.34	0.02
674.667	0.03
674.995	0.03
675.322	0.03
675.649	0.02
675.977	0.03
676.304	0.02
676.631	0.02
676.958	0.02
677.285	0.02
677.612	0.01
677.939	0.02
678.266	0.02
678.593	0.02
678.92	0.02
679.246	0.01
679.573	0.02
679.9	0.01
680.226	0.02
680.553	0.01
680.879	0.01
681.206	0.02
681.532	0.01
681.858	0.02
682.184	0.02
682.511	0.01
682.837	0.02
683.163	0.02
683.489	0.02
683.815	0.02
684.141	0.02
684.467	0.02
684.793	0.01
685.118	0.02
685.444	0.02
685.77	0.02
686.095	0.02
686.421	0.02
686.746	0.03
687.072	0.02
687.397	0.02
687.723	0.03
688.048	0.03
688.373	0.02
688.698	0.02
689.023	0.02
689.349	0.02
689.674	0.02
689.999	0.02
690.323	0.01
690.648	0.01
690.973	0.01
691.298	0.01
691.623	0.01
691.947	0.01
692.272	0.01
692.596	0.01
692.921	0.02
693.245	0.02
693.57	0.02
693.894	0.02
694.218	0.01
694.543	0.01
694.867	0.01
695.191	0.01
695.515	0.02
695.839	0.01
696.163	0.01
696.487	0.01
696.811	0.01
697.135	0.02
697.458	0.01
697.782	0.01
698.106	0.02
698.429	0.01
698.753	0.01
699.076	0.02
699.4	0.01
699.723	0.02
700.046	0.02
700.37	0.02
700.693	0.02
701.016	0.02
701.339	0.02
701.662	0.03
701.985	0.02
702.308	0.02
702.631	0.02
702.954	0.03
703.277	0.02
703.599	0.02
703.922	0.02
704.245	0.02
704.567	0.02
704.89	0.02
705.212	0.03
705.535	0.02
705.857	0.01
706.179	0.01
706.502	0.01
706.824	0
707.146	0.01
707.468	0.02
707.79	0.01
708.112	0.02
708.434	0.02
708.756	0.02
709.078	0.02
709.399	0.01
709.721	0.01
710.043	0.02
710.364	0.02
710.686	0.02
711.007	0.02
711.329	0.02
711.65	0.02
711.972	0.02
712.293	0.02
712.614	0.02
712.935	0.02
713.256	0.02
713.577	0.03
713.898	0.02
714.219	0.02
714.54	0.01
714.861	0.01
715.182	0.02
715.503	0.01
715.823	0.01
716.144	0.01
716.464	0.02
716.785	0.02
717.105	0.01
717.426	0.02
717.746	0.02
718.066	0.01
718.387	0.01
718.707	0.01
719.027	0.02
719.347	0.01
719.667	0.01
719.987	0.01
720.307	0.01
720.627	0.01
720.947	0
721.266	0.01
721.586	0
721.906	0.01
722.225	0
722.545	0
722.864	0
723.184	0.01
723.503	0.01
723.823	0.02
724.142	0
724.461	0
724.78	0.01
725.099	0.01
725.418	0.01
725.737	0.01
726.056	0.01
726.375	0.02
726.694	0.01
