Data from 12-12-AQDScycling_Absorbance__40__00040.txt Node

Date: Tue Dec 12 11:06:44 EST 2023
User: kyuminlee
Spectrometer: FLMS00943
Trigger mode: 0
Integration Time (sec): 1.000000E-1
Scans to average: 1
Electric dark correction enabled: true
Nonlinearity correction enabled: false
Boxcar width: 0
XAxis mode: Wavelengths
Number of Pixels in Spectrum: 2048
>>>>>Begin Spectral Data<<<<<
179.651	-0
180.037	-0
180.424	-0
180.81	-0.3
181.197	0.03
181.583	0.15
181.97	0.11
182.356	-0
182.743	-0
183.129	1.09
183.515	0.2
183.901	-1.93
184.288	0.06
184.674	-0
185.06	-0
185.446	-0
185.832	-0.91
186.218	0.44
186.604	0.51
186.99	-0
187.376	-0
187.762	-0.31
188.148	-0
188.534	-0.46
188.92	0.01
189.305	0.03
189.691	0.18
190.077	0.21
190.463	-0.06
190.848	0.06
191.234	0.04
191.619	0.08
192.005	0.16
192.391	0.06
192.776	0.12
193.161	0.1
193.547	0.15
193.932	0.17
194.318	0.03
194.703	-0.03
195.088	0.06
195.473	0.22
195.859	0.07
196.244	0.21
196.629	0.03
197.014	0.06
197.399	0.12
197.784	0.15
198.169	-0.02
198.554	0.25
198.939	0.11
199.324	0.04
199.709	0.09
200.094	0.07
200.478	0.06
200.863	0.12
201.248	0.15
201.633	0.11
202.017	0.3
202.402	0.24
202.787	0.06
203.171	0.13
203.556	0.17
203.94	0.18
204.325	0.29
204.709	0.18
205.093	0.06
205.478	0.18
205.862	0.03
206.246	0.22
206.631	0.13
207.015	0.04
207.399	0.13
207.783	0.11
208.167	0.21
208.551	0.34
208.935	0.22
209.319	0.12
209.703	0.11
210.087	0.12
210.471	0.09
210.855	0.01
211.239	0.16
211.623	0.31
212.007	0.37
212.39	0.27
212.774	0.18
213.158	0.14
213.541	0.27
213.925	0.19
214.309	0.24
214.692	0.23
215.076	0.3
215.459	0.1
215.842	0.1
216.226	0.22
216.609	0.3
216.993	0.06
217.376	0.56
217.759	0.14
218.142	0.27
218.525	0.62
218.909	0.42
219.292	0.4
219.675	0.41
220.058	0.45
220.441	0.45
220.824	0.48
221.207	0.53
221.59	0.45
221.973	0.48
222.355	0.69
222.738	0.65
223.121	0.49
223.504	0.57
223.886	0.85
224.269	0.64
224.652	0.64
225.034	0.73
225.417	0.8
225.799	0.7
226.182	0.93
226.564	0.73
226.947	0.71
227.329	0.87
227.711	1.01
228.094	0.84
228.476	0.84
228.858	0.75
229.24	0.8
229.623	0.89
230.005	0.84
230.387	1.07
230.769	0.88
231.151	1.03
231.533	0.88
231.915	0.9
232.297	0.94
232.679	0.92
233.061	0.93
233.442	0.94
233.824	0.92
234.206	1
234.588	1.08
234.969	1.01
235.351	0.99
235.733	1.01
236.114	1.25
236.496	1.05
236.877	1.12
237.259	1.01
237.64	1.07
238.022	0.94
238.403	0.97
238.784	0.94
239.165	1.03
239.547	1.13
239.928	1.02
240.309	1
240.69	1.02
241.071	0.99
241.452	1.15
241.834	1.13
242.215	0.99
242.595	1.09
242.976	1.13
243.357	1.07
243.738	1
244.119	1.23
244.5	1.06
244.881	1.14
245.261	1.2
245.642	1.17
246.023	1.22
246.403	1.17
246.784	1.24
247.164	1.49
247.545	1.35
247.925	1.3
248.306	1.25
248.686	1.48
249.067	1.29
249.447	1.34
249.827	1.5
250.207	1.51
250.588	1.29
250.968	1.43
251.348	1.3
251.728	1.37
252.108	1.34
252.488	1.48
252.868	1.43
253.248	1.29
253.628	1.33
254.008	1.39
254.388	1.27
254.768	1.31
255.147	1.46
255.527	1.44
255.907	1.31
256.287	1.28
256.666	1.31
257.046	1.46
257.425	1.35
257.805	1.37
258.184	1.32
258.564	1.35
258.943	1.36
259.323	1.43
259.702	1.46
260.081	1.38
260.461	1.47
260.84	1.46
261.219	1.7
261.598	1.63
261.977	1.38
262.356	1.48
262.736	1.79
263.115	1.63
263.494	1.41
263.873	1.36
264.251	1.54
264.63	1.63
265.009	1.36
265.388	1.34
265.767	1.53
266.145	1.37
266.524	1.41
266.903	1.45
267.281	1.28
267.66	1.49
268.039	1.36
268.417	1.37
268.796	1.41
269.174	1.43
269.552	1.31
269.931	1.49
270.309	1.3
270.687	1.68
271.066	1.68
271.444	1.44
271.822	1.48
272.2	1.42
272.578	1.32
272.956	1.32
273.334	1.32
273.712	1.48
274.09	1.45
274.468	1.33
274.846	1.34
275.224	1.3
275.602	1.39
275.98	1.55
276.357	1.33
276.735	1.44
277.113	1.38
277.49	1.27
277.868	1.22
278.246	1.29
278.623	1.37
279.001	1.3
279.378	1.33
279.756	1.4
280.133	1.44
280.51	1.37
280.888	1.58
281.265	1.41
281.642	1.56
282.019	1.43
282.396	1.52
282.773	1.37
283.151	1.49
283.528	1.47
283.905	1.3
284.282	1.41
284.659	1.52
285.035	1.38
285.412	1.33
285.789	1.55
286.166	1.49
286.543	1.51
286.919	1.47
287.296	1.36
287.673	1.61
288.049	1.51
288.426	1.63
288.802	1.5
289.179	1.44
289.555	1.45
289.932	1.56
290.308	1.35
290.684	1.44
291.061	1.4
291.437	1.56
291.813	1.26
292.189	1.35
292.565	1.3
292.942	1.35
293.318	1.39
293.694	1.5
294.07	1.27
294.446	1.41
294.822	1.72
295.197	1.35
295.573	1.36
295.949	1.43
296.325	1.37
296.701	1.38
297.076	1.54
297.452	1.52
297.828	1.45
298.203	1.59
298.579	1.46
298.954	1.49
299.33	1.4
299.705	1.47
300.081	1.53
300.456	1.38
300.831	1.52
301.206	1.47
301.582	1.46
301.957	1.47
302.332	1.64
302.707	1.43
303.082	1.58
303.457	1.48
303.832	1.54
304.207	1.34
304.582	1.44
304.957	1.49
305.332	1.44
305.707	1.49
306.082	1.58
306.456	1.54
306.831	1.42
307.206	1.46
307.58	1.49
307.955	1.42
308.33	1.5
308.704	1.44
309.079	1.36
309.453	1.56
309.828	1.43
310.202	1.39
310.576	1.45
310.951	1.44
311.325	1.42
311.699	1.41
312.073	1.38
312.447	1.4
312.821	1.4
313.196	1.44
313.57	1.41
313.944	1.42
314.317	1.29
314.691	1.46
315.065	1.4
315.439	1.42
315.813	1.41
316.187	1.44
316.56	1.67
316.934	1.56
317.308	1.46
317.681	1.46
318.055	1.44
318.428	1.37
318.802	1.46
319.175	1.5
319.549	1.45
319.922	1.39
320.295	1.45
320.669	1.41
321.042	1.43
321.415	1.55
321.788	1.53
322.162	1.53
322.535	1.51
322.908	1.53
323.281	1.47
323.654	1.61
324.027	1.4
324.4	1.49
324.773	1.56
325.145	1.64
325.518	1.38
325.891	1.39
326.264	1.66
326.636	1.46
327.009	1.38
327.382	1.49
327.754	1.64
328.127	1.43
328.499	1.59
328.872	1.6
329.244	1.56
329.616	1.4
329.989	1.39
330.361	1.43
330.733	1.41
331.106	1.4
331.478	1.61
331.85	1.45
332.222	1.48
332.594	1.48
332.966	1.62
333.338	1.52
333.71	1.49
334.082	1.56
334.454	1.37
334.826	1.45
335.197	1.51
335.569	1.45
335.941	1.41
336.312	1.4
336.684	1.4
337.056	1.55
337.427	1.56
337.799	1.58
338.17	1.6
338.542	1.53
338.913	1.54
339.284	1.58
339.656	1.53
340.027	1.66
340.398	1.54
340.769	1.57
341.141	1.71
341.512	1.62
341.883	1.47
342.254	1.43
342.625	1.54
342.996	1.47
343.367	1.41
343.738	1.55
344.108	1.4
344.479	1.54
344.85	1.29
345.221	1.47
345.591	1.51
345.962	1.54
346.333	1.47
346.703	1.27
347.074	1.34
347.444	1.28
347.815	1.3
348.185	1.42
348.556	1.37
348.926	1.29
349.296	1.4
349.666	1.52
350.037	1.27
350.407	1.29
350.777	1.35
351.147	1.4
351.517	1.35
351.887	1.25
352.257	1.36
352.627	1.31
352.997	1.28
353.367	1.36
353.737	1.43
354.106	1.45
354.476	1.29
354.846	1.38
355.216	1.36
355.585	1.32
355.955	1.36
356.324	1.33
356.694	1.3
357.063	1.31
357.433	1.31
357.802	1.29
358.171	1.33
358.541	1.25
358.91	1.32
359.279	1.31
359.648	1.29
360.017	1.23
360.387	1.24
360.756	1.18
361.125	1.28
361.494	1.26
361.863	1.19
362.231	1.19
362.6	1.24
362.969	1.15
363.338	1.12
363.707	1.19
364.075	1.25
364.444	1.11
364.813	1.18
365.181	1.14
365.55	1.15
365.918	1.18
366.287	1.16
366.655	1.14
367.024	1.13
367.392	1.18
367.76	1.12
368.128	1.13
368.497	1.16
368.865	1.12
369.233	1.1
369.601	1.15
369.969	1.18
370.337	1.1
370.705	1.15
371.073	1.16
371.441	1.1
371.809	1.11
372.177	1.12
372.544	1.09
372.912	1.08
373.28	1.1
373.647	1.14
374.015	1.18
374.383	1.21
374.75	1.19
375.118	1.1
375.485	1.11
375.853	1.16
376.22	1.1
376.587	1.15
376.955	1.16
377.322	1.18
377.689	1.1
378.056	1.11
378.423	1.09
378.79	1.11
379.157	1.14
379.524	1.14
379.891	1.17
380.258	1.22
380.625	1.17
380.992	1.16
381.359	1.15
381.726	1.19
382.092	1.15
382.459	1.18
382.826	1.18
383.192	1.15
383.559	1.22
383.925	1.19
384.292	1.2
384.658	1.2
385.025	1.22
385.391	1.32
385.757	1.26
386.123	1.23
386.49	1.26
386.856	1.27
387.222	1.27
387.588	1.26
387.954	1.3
388.32	1.36
388.686	1.33
389.052	1.25
389.418	1.31
389.784	1.25
390.15	1.25
390.515	1.21
390.881	1.36
391.247	1.31
391.613	1.3
391.978	1.25
392.344	1.27
392.709	1.3
393.075	1.24
393.44	1.29
393.806	1.33
394.171	1.26
394.536	1.28
394.902	1.3
395.267	1.17
395.632	1.2
395.997	1.24
396.362	1.22
396.727	1.25
397.092	1.26
397.457	1.26
397.822	1.25
398.187	1.26
398.552	1.21
398.917	1.33
399.282	1.2
399.646	1.23
400.011	1.29
400.376	1.15
400.74	1.18
401.105	1.19
401.47	1.21
401.834	1.12
402.199	1.16
402.563	1.13
402.927	1.16
403.292	1.2
403.656	1.1
404.02	1.17
404.384	1.19
404.749	1.15
405.113	1.17
405.477	1.13
405.841	1.07
406.205	1.1
406.569	1.11
406.933	1.07
407.296	1.06
407.66	1.05
408.024	1.02
408.388	1.08
408.752	1.04
409.115	1.11
409.479	1.04
409.842	1.02
410.206	1.03
410.569	1.02
410.933	0.98
411.296	0.94
411.66	0.98
412.023	0.92
412.386	0.96
412.749	0.92
413.113	1
413.476	0.91
413.839	0.89
414.202	0.92
414.565	0.95
414.928	0.93
415.291	0.9
415.654	0.92
416.017	0.93
416.38	0.92
416.742	0.9
417.105	0.88
417.468	0.88
417.83	0.88
418.193	0.91
418.556	0.88
418.918	0.89
419.281	0.88
419.643	0.91
420.005	0.88
420.368	0.88
420.73	0.84
421.092	0.9
421.455	0.9
421.817	0.82
422.179	0.86
422.541	0.88
422.903	0.88
423.265	0.86
423.627	0.89
423.989	0.86
424.351	0.85
424.713	0.83
425.075	0.8
425.436	0.84
425.798	0.85
426.16	0.86
426.521	0.82
426.883	0.85
427.245	0.8
427.606	0.8
427.967	0.82
428.329	0.78
428.69	0.82
429.052	0.83
429.413	0.82
429.774	0.8
430.135	0.8
430.497	0.8
430.858	0.81
431.219	0.8
431.58	0.79
431.941	0.79
432.302	0.78
432.663	0.8
433.024	0.81
433.384	0.8
433.745	0.8
434.106	0.77
434.467	0.78
434.827	0.76
435.188	0.76
435.548	0.78
435.909	0.77
436.269	0.78
436.63	0.75
436.99	0.75
437.351	0.74
437.711	0.75
438.071	0.74
438.431	0.72
438.792	0.73
439.152	0.74
439.512	0.72
439.872	0.73
440.232	0.75
440.592	0.74
440.952	0.71
441.312	0.71
441.671	0.71
442.031	0.7
442.391	0.7
442.751	0.69
443.11	0.71
443.47	0.68
443.83	0.68
444.189	0.66
444.549	0.68
444.908	0.67
445.267	0.67
445.627	0.67
445.986	0.65
446.345	0.65
446.705	0.65
447.064	0.66
447.423	0.65
447.782	0.65
448.141	0.63
448.5	0.62
448.859	0.64
449.218	0.63
449.577	0.63
449.936	0.64
450.295	0.63
450.653	0.63
451.012	0.63
451.371	0.62
451.729	0.63
452.088	0.62
452.447	0.61
452.805	0.61
453.163	0.6
453.522	0.6
453.88	0.58
454.239	0.59
454.597	0.58
454.955	0.58
455.313	0.57
455.671	0.56
456.029	0.55
456.388	0.55
456.746	0.55
457.104	0.54
457.461	0.54
457.819	0.54
458.177	0.52
458.535	0.51
458.893	0.51
459.25	0.51
459.608	0.5
459.966	0.5
460.323	0.49
460.681	0.48
461.038	0.48
461.396	0.48
461.753	0.48
462.111	0.46
462.468	0.46
462.825	0.46
463.182	0.45
463.54	0.45
463.897	0.45
464.254	0.45
464.611	0.44
464.968	0.43
465.325	0.43
465.682	0.43
466.039	0.42
466.395	0.41
466.752	0.4
467.109	0.4
467.466	0.4
467.822	0.4
468.179	0.39
468.535	0.39
468.892	0.38
469.248	0.39
469.605	0.38
469.961	0.37
470.318	0.37
470.674	0.37
471.03	0.36
471.386	0.36
471.743	0.35
472.099	0.35
472.455	0.34
472.811	0.33
473.167	0.33
473.523	0.32
473.879	0.32
474.235	0.32
474.59	0.32
474.946	0.31
475.302	0.31
475.657	0.31
476.013	0.31
476.369	0.3
476.724	0.31
477.08	0.3
477.435	0.29
477.791	0.29
478.146	0.29
478.501	0.29
478.857	0.28
479.212	0.28
479.567	0.27
479.922	0.26
480.277	0.26
480.632	0.26
480.987	0.26
481.342	0.26
481.697	0.25
482.052	0.25
482.407	0.24
482.762	0.23
483.116	0.23
483.471	0.23
483.826	0.22
484.18	0.23
484.535	0.23
484.89	0.23
485.244	0.23
485.598	0.23
485.953	0.22
486.307	0.22
486.661	0.22
487.016	0.21
487.37	0.21
487.724	0.21
488.078	0.21
488.432	0.2
488.786	0.2
489.14	0.2
489.494	0.2
489.848	0.2
490.202	0.19
490.556	0.19
490.91	0.19
491.263	0.19
491.617	0.19
491.971	0.19
492.324	0.19
492.678	0.19
493.031	0.19
493.385	0.18
493.738	0.18
494.091	0.18
494.445	0.18
494.798	0.18
495.151	0.18
495.504	0.17
495.857	0.17
496.21	0.18
496.564	0.17
496.916	0.18
497.269	0.17
497.622	0.17
497.975	0.17
498.328	0.18
498.681	0.17
499.033	0.17
499.386	0.17
499.739	0.17
500.091	0.16
500.444	0.16
500.796	0.17
501.149	0.16
501.501	0.16
501.854	0.16
502.206	0.16
502.558	0.16
502.91	0.16
503.263	0.16
503.615	0.15
503.967	0.16
504.319	0.15
504.671	0.16
505.023	0.15
505.375	0.14
505.726	0.15
506.078	0.15
506.43	0.14
506.782	0.15
507.133	0.14
507.485	0.15
507.837	0.16
508.188	0.16
508.54	0.15
508.891	0.16
509.243	0.14
509.594	0.15
509.945	0.15
510.296	0.14
510.648	0.15
510.999	0.14
511.35	0.14
511.701	0.14
512.052	0.15
512.403	0.14
512.754	0.14
513.105	0.13
513.456	0.14
513.807	0.13
514.157	0.14
514.508	0.14
514.859	0.13
515.209	0.13
515.56	0.13
515.91	0.13
516.261	0.14
516.611	0.13
516.962	0.14
517.312	0.14
517.662	0.14
518.013	0.14
518.363	0.14
518.713	0.14
519.063	0.14
519.413	0.14
519.763	0.13
520.113	0.14
520.463	0.14
520.813	0.14
521.163	0.14
521.512	0.14
521.862	0.14
522.212	0.14
522.562	0.14
522.911	0.14
523.261	0.14
523.61	0.14
523.96	0.14
524.309	0.14
524.658	0.14
525.008	0.13
525.357	0.15
525.706	0.15
526.056	0.14
526.405	0.14
526.754	0.14
527.103	0.14
527.452	0.14
527.801	0.14
528.15	0.14
528.499	0.14
528.847	0.14
529.196	0.15
529.545	0.14
529.893	0.14
530.242	0.13
530.591	0.14
530.939	0.15
531.288	0.14
531.636	0.14
531.985	0.14
532.333	0.14
532.681	0.14
533.029	0.14
533.378	0.14
533.726	0.14
534.074	0.15
534.422	0.13
534.77	0.15
535.118	0.14
535.466	0.14
535.814	0.14
536.162	0.14
536.509	0.15
536.857	0.14
537.205	0.15
537.552	0.15
537.9	0.14
538.248	0.14
538.595	0.14
538.943	0.14
539.29	0.14
539.637	0.14
539.985	0.13
540.332	0.14
540.679	0.14
541.026	0.14
541.373	0.14
541.721	0.14
542.068	0.14
542.415	0.14
542.762	0.14
543.108	0.13
543.455	0.13
543.802	0.13
544.149	0.14
544.496	0.14
544.842	0.14
545.189	0.13
545.535	0.14
545.882	0.14
546.228	0.14
546.575	0.13
546.921	0.14
547.267	0.13
547.614	0.14
547.96	0.14
548.306	0.14
548.652	0.13
548.998	0.14
549.344	0.14
549.69	0.14
550.036	0.13
550.382	0.13
550.728	0.13
551.074	0.14
551.42	0.14
551.765	0.14
552.111	0.14
552.457	0.15
552.802	0.14
553.148	0.14
553.493	0.14
553.839	0.14
554.184	0.14
554.529	0.14
554.875	0.15
555.22	0.15
555.565	0.15
555.91	0.15
556.255	0.15
556.6	0.15
556.945	0.14
557.29	0.14
557.635	0.14
557.98	0.14
558.325	0.13
558.67	0.14
559.014	0.14
559.359	0.14
559.704	0.15
560.048	0.13
560.393	0.14
560.737	0.13
561.082	0.14
561.426	0.13
561.77	0.13
562.115	0.13
562.459	0.14
562.803	0.14
563.147	0.13
563.491	0.14
563.835	0.14
564.179	0.14
564.523	0.13
564.867	0.13
565.211	0.13
565.555	0.14
565.899	0.15
566.242	0.14
566.586	0.13
566.93	0.14
567.273	0.14
567.617	0.15
567.96	0.14
568.304	0.14
568.647	0.14
568.99	0.14
569.334	0.15
569.677	0.15
570.02	0.15
570.363	0.15
570.706	0.14
571.049	0.15
571.392	0.15
571.735	0.15
572.078	0.15
572.421	0.15
572.764	0.15
573.106	0.15
573.449	0.15
573.792	0.14
574.134	0.15
574.477	0.15
574.819	0.14
575.162	0.15
575.504	0.14
575.847	0.14
576.189	0.14
576.531	0.14
576.873	0.14
577.215	0.14
577.558	0.14
577.9	0.14
578.242	0.14
578.584	0.14
578.926	0.14
579.267	0.14
579.609	0.14
579.951	0.14
580.293	0.14
580.634	0.14
580.976	0.14
581.318	0.14
581.659	0.14
582.001	0.14
582.342	0.14
582.683	0.15
583.025	0.14
583.366	0.13
583.707	0.14
584.049	0.15
584.39	0.14
584.731	0.14
585.072	0.14
585.413	0.14
585.754	0.14
586.095	0.15
586.435	0.13
586.776	0.14
587.117	0.14
587.458	0.13
587.798	0.13
588.139	0.14
588.48	0.14
588.82	0.14
589.161	0.13
589.501	0.13
589.841	0.13
590.182	0.12
590.522	0.13
590.862	0.13
591.202	0.13
591.542	0.12
591.882	0.13
592.222	0.13
592.562	0.13
592.902	0.13
593.242	0.13
593.582	0.13
593.922	0.13
594.261	0.13
594.601	0.14
594.941	0.13
595.28	0.14
595.62	0.14
595.959	0.14
596.299	0.13
596.638	0.14
596.977	0.13
597.317	0.14
597.656	0.14
597.995	0.14
598.334	0.14
598.673	0.14
599.012	0.13
599.351	0.14
599.69	0.13
600.029	0.14
600.368	0.14
600.707	0.14
601.046	0.14
601.384	0.14
601.723	0.14
602.061	0.13
602.4	0.14
602.738	0.14
603.077	0.14
603.415	0.13
603.754	0.14
604.092	0.14
604.43	0.14
604.768	0.14
605.107	0.14
605.445	0.13
605.783	0.14
606.121	0.13
606.459	0.14
606.796	0.14
607.134	0.14
607.472	0.14
607.81	0.14
608.148	0.14
608.485	0.14
608.823	0.14
609.16	0.14
609.498	0.14
609.835	0.13
610.173	0.14
610.51	0.14
610.847	0.15
611.185	0.15
611.522	0.14
611.859	0.15
612.196	0.14
612.533	0.15
612.87	0.15
613.207	0.15
613.544	0.15
613.881	0.16
614.217	0.15
614.554	0.14
614.891	0.14
615.228	0.15
615.564	0.14
615.901	0.14
616.237	0.15
616.574	0.14
616.91	0.15
617.246	0.14
617.583	0.14
617.919	0.14
618.255	0.15
618.591	0.15
618.927	0.15
619.263	0.15
619.599	0.15
619.935	0.15
620.271	0.15
620.607	0.14
620.943	0.14
621.279	0.14
621.614	0.14
621.95	0.15
622.286	0.14
622.621	0.14
622.957	0.14
623.292	0.14
623.627	0.14
623.963	0.13
624.298	0.14
624.633	0.13
624.968	0.13
625.304	0.14
625.639	0.14
625.974	0.14
626.309	0.14
626.644	0.14
626.979	0.14
627.313	0.14
627.648	0.13
627.983	0.14
628.318	0.14
628.652	0.13
628.987	0.14
629.321	0.14
629.656	0.13
629.99	0.13
630.325	0.13
630.659	0.13
630.993	0.13
631.327	0.13
631.662	0.12
631.996	0.12
632.33	0.13
632.664	0.13
632.998	0.12
633.332	0.12
633.666	0.12
633.999	0.13
634.333	0.12
634.667	0.12
635.001	0.12
635.334	0.12
635.668	0.11
636.001	0.12
636.335	0.12
636.668	0.13
637.001	0.12
637.335	0.12
637.668	0.12
638.001	0.12
638.334	0.12
638.668	0.12
639.001	0.12
639.334	0.12
639.667	0.12
639.999	0.12
640.332	0.13
640.665	0.12
640.998	0.12
641.331	0.13
641.663	0.12
641.996	0.12
642.328	0.12
642.661	0.13
642.993	0.12
643.326	0.12
643.658	0.11
643.99	0.12
644.323	0.12
644.655	0.12
644.987	0.13
645.319	0.12
645.651	0.12
645.983	0.12
646.315	0.12
646.647	0.13
646.979	0.13
647.31	0.12
647.642	0.12
647.974	0.13
648.305	0.13
648.637	0.13
648.968	0.13
649.3	0.13
649.631	0.13
649.963	0.12
650.294	0.13
650.625	0.12
650.957	0.13
651.288	0.12
651.619	0.12
651.95	0.12
652.281	0.12
652.612	0.13
652.943	0.13
653.274	0.13
653.604	0.12
653.935	0.12
654.266	0.12
654.596	0.12
654.927	0.12
655.258	0.12
655.588	0.13
655.918	0.13
656.249	0.1
656.579	0.12
656.909	0.12
657.24	0.11
657.57	0.12
657.9	0.12
658.23	0.12
658.56	0.12
658.89	0.12
659.22	0.12
659.55	0.12
659.88	0.12
660.209	0.13
660.539	0.13
660.869	0.13
661.198	0.12
661.528	0.12
661.857	0.12
662.187	0.13
662.516	0.11
662.846	0.12
663.175	0.12
663.504	0.11
663.833	0.12
664.163	0.12
664.492	0.12
664.821	0.12
665.15	0.11
665.479	0.12
665.807	0.12
666.136	0.12
666.465	0.12
666.794	0.12
667.122	0.11
667.451	0.11
667.78	0.11
668.108	0.12
668.437	0.12
668.765	0.11
669.093	0.12
669.422	0.12
669.75	0.11
670.078	0.11
670.406	0.12
670.734	0.11
671.062	0.12
671.39	0.11
671.718	0.11
672.046	0.11
672.374	0.11
672.702	0.11
673.029	0.11
673.357	0.12
673.685	0.12
674.012	0.11
674.34	0.11
674.667	0.11
674.995	0.11
675.322	0.11
675.649	0.1
675.977	0.11
676.304	0.11
676.631	0.1
676.958	0.1
677.285	0.1
677.612	0.1
677.939	0.1
678.266	0.1
678.593	0.1
678.92	0.1
679.246	0.1
679.573	0.1
679.9	0.09
680.226	0.1
680.553	0.09
680.879	0.1
681.206	0.1
681.532	0.1
681.858	0.09
682.184	0.1
682.511	0.09
682.837	0.09
683.163	0.1
683.489	0.1
683.815	0.09
684.141	0.09
684.467	0.1
684.793	0.09
685.118	0.09
685.444	0.1
685.77	0.09
686.095	0.1
686.421	0.09
686.746	0.1
687.072	0.1
687.397	0.1
687.723	0.1
688.048	0.1
688.373	0.09
688.698	0.1
689.023	0.09
689.349	0.09
689.674	0.09
689.999	0.09
690.323	0.08
690.648	0.08
690.973	0.08
691.298	0.08
691.623	0.08
691.947	0.08
692.272	0.08
692.596	0.09
692.921	0.09
693.245	0.08
693.57	0.09
693.894	0.08
694.218	0.09
694.543	0.08
694.867	0.08
695.191	0.08
695.515	0.08
695.839	0.08
696.163	0.08
696.487	0.08
696.811	0.08
697.135	0.08
697.458	0.09
697.782	0.08
698.106	0.08
698.429	0.08
698.753	0.09
699.076	0.09
699.4	0.08
699.723	0.09
700.046	0.08
700.37	0.09
700.693	0.09
701.016	0.09
701.339	0.09
701.662	0.09
701.985	0.08
702.308	0.08
702.631	0.09
702.954	0.09
703.277	0.08
703.599	0.08
703.922	0.08
704.245	0.07
704.567	0.07
704.89	0.07
705.212	0.08
705.535	0.07
705.857	0.07
706.179	0.07
706.502	0.07
706.824	0.06
707.146	0.07
707.468	0.07
707.79	0.07
708.112	0.07
708.434	0.07
708.756	0.07
709.078	0.07
709.399	0.06
709.721	0.07
710.043	0.08
710.364	0.07
710.686	0.07
711.007	0.07
711.329	0.07
711.65	0.08
711.972	0.07
712.293	0.07
712.614	0.07
712.935	0.08
713.256	0.07
713.577	0.08
713.898	0.07
714.219	0.07
714.54	0.07
714.861	0.07
715.182	0.07
715.503	0.07
715.823	0.07
716.144	0.06
716.464	0.07
716.785	0.07
717.105	0.07
717.426	0.07
717.746	0.06
718.066	0.06
718.387	0.07
718.707	0.06
719.027	0.06
719.347	0.06
719.667	0.06
719.987	0.06
720.307	0.06
720.627	0.06
720.947	0.06
721.266	0.06
721.586	0.06
721.906	0.07
722.225	0.06
722.545	0.06
722.864	0.06
723.184	0.07
723.503	0.06
723.823	0.07
