Data from 12-12-AQDScycling_Absorbance__667__00667.txt Node

Date: Tue Dec 12 13:43:29 EST 2023
User: kyuminlee
Spectrometer: FLMS00943
Trigger mode: 0
Integration Time (sec): 1.000000E-1
Scans to average: 1
Electric dark correction enabled: true
Nonlinearity correction enabled: false
Boxcar width: 0
XAxis mode: Wavelengths
Number of Pixels in Spectrum: 2048
>>>>>Begin Spectral Data<<<<<
179.651	1.68
180.037	1.68
180.424	1.68
180.81	-0
181.197	0.16
181.583	-0
181.97	-0.25
182.356	-0
182.743	-0
183.129	0.25
183.515	0.22
183.901	-0
184.288	0.67
184.674	0.03
185.06	-0
185.446	-0
185.832	-0
186.218	0.14
186.604	-0
186.99	-0
187.376	-0
187.762	0.01
188.148	0.6
188.534	-0.28
188.92	0.08
189.305	-0.01
189.691	0.16
190.077	0.2
190.463	0.17
190.848	0.11
191.234	0.21
191.619	0.14
192.005	0.05
192.391	0.07
192.776	0.08
193.161	0.09
193.547	0.16
193.932	-0.02
194.318	0.1
194.703	0.13
195.088	0.26
195.473	0.16
195.859	0.17
196.244	0.25
196.629	0.22
197.014	0.17
197.399	0.19
197.784	0.23
198.169	0.19
198.554	0.24
198.939	0.1
199.324	0.18
199.709	0.1
200.094	0.17
200.478	0.1
200.863	0.14
201.248	0.09
201.633	0.11
202.017	0.13
202.402	0.24
202.787	0.09
203.171	0.18
203.556	0.17
203.94	0.24
204.325	0.21
204.709	0.33
205.093	0.13
205.478	0.27
205.862	0.06
206.246	0.11
206.631	0.22
207.015	0.16
207.399	0.16
207.783	0.13
208.167	0.15
208.551	0.28
208.935	0.23
209.319	0.18
209.703	0.25
210.087	0.17
210.471	0.14
210.855	0.17
211.239	0.25
211.623	0.27
212.007	0.26
212.39	0.23
212.774	0.18
213.158	0.21
213.541	0.35
213.925	0.2
214.309	0.37
214.692	0.28
215.076	0.3
215.459	0.17
215.842	0.17
216.226	0.34
216.609	0.33
216.993	0.17
217.376	0.57
217.759	0.43
218.142	0.37
218.525	0.59
218.909	0.43
219.292	0.3
219.675	0.48
220.058	0.46
220.441	0.52
220.824	0.54
221.207	0.55
221.59	0.46
221.973	0.49
222.355	0.63
222.738	0.68
223.121	0.67
223.504	0.55
223.886	0.7
224.269	0.76
224.652	0.64
225.034	0.91
225.417	0.74
225.799	0.9
226.182	0.93
226.564	0.92
226.947	0.86
227.329	0.84
227.711	1.18
228.094	0.99
228.476	0.98
228.858	0.9
229.24	0.86
229.623	0.93
230.005	0.89
230.387	0.87
230.769	0.81
231.151	1.04
231.533	0.88
231.915	0.94
232.297	1.1
232.679	1.05
233.061	0.9
233.442	1.08
233.824	1.11
234.206	1.03
234.588	0.99
234.969	1.17
235.351	0.97
235.733	1.03
236.114	1.05
236.496	1.17
236.877	1.18
237.259	1.09
237.64	1.06
238.022	0.91
238.403	1.07
238.784	1
239.165	0.94
239.547	1.05
239.928	1.14
240.309	1.06
240.69	1.09
241.071	1.2
241.452	1.09
241.834	1.07
242.215	1.13
242.595	1.27
242.976	1.18
243.357	1.19
243.738	1.02
244.119	1.33
244.5	1.16
244.881	1.23
245.261	1.23
245.642	1.22
246.023	1.26
246.403	1.17
246.784	1.18
247.164	1.29
247.545	1.17
247.925	1.24
248.306	1.19
248.686	1.36
249.067	1.3
249.447	1.26
249.827	1.64
250.207	1.53
250.588	1.41
250.968	1.59
251.348	1.34
251.728	1.43
252.108	1.51
252.488	1.31
252.868	1.44
253.248	1.32
253.628	1.59
254.008	1.76
254.388	1.44
254.768	1.33
255.147	1.42
255.527	1.46
255.907	1.36
256.287	1.38
256.666	1.32
257.046	1.47
257.425	1.38
257.805	1.33
258.184	1.32
258.564	1.36
258.943	1.35
259.323	1.48
259.702	1.49
260.081	1.64
260.461	1.45
260.84	1.43
261.219	1.68
261.598	1.61
261.977	1.55
262.356	1.67
262.736	1.58
263.115	1.62
263.494	1.37
263.873	1.46
264.251	1.51
264.63	1.57
265.009	1.43
265.388	1.58
265.767	1.4
266.145	1.48
266.524	1.43
266.903	1.43
267.281	1.42
267.66	1.52
268.039	1.6
268.417	1.46
268.796	1.46
269.174	1.62
269.552	1.37
269.931	1.6
270.309	1.39
270.687	1.71
271.066	1.87
271.444	1.44
271.822	1.47
272.2	1.39
272.578	1.37
272.956	1.38
273.334	1.32
273.712	1.48
274.09	1.44
274.468	1.6
274.846	1.32
275.224	1.52
275.602	1.36
275.98	1.57
276.357	1.38
276.735	1.51
277.113	1.46
277.49	1.5
277.868	1.28
278.246	1.49
278.623	1.47
279.001	1.35
279.378	1.36
279.756	1.5
280.133	1.65
280.51	1.43
280.888	1.45
281.265	1.45
281.642	1.55
282.019	1.57
282.396	1.52
282.773	1.5
283.151	1.51
283.528	1.44
283.905	1.48
284.282	1.51
284.659	1.79
285.035	1.35
285.412	1.39
285.789	1.63
286.166	1.58
286.543	1.66
286.919	1.71
287.296	1.39
287.673	1.57
288.049	1.59
288.426	1.55
288.802	1.5
289.179	1.55
289.555	1.68
289.932	1.51
290.308	1.33
290.684	1.36
291.061	1.4
291.437	1.47
291.813	1.53
292.189	1.26
292.565	1.29
292.942	1.37
293.318	1.38
293.694	1.45
294.07	1.35
294.446	1.46
294.822	1.79
295.197	1.38
295.573	1.54
295.949	1.55
296.325	1.65
296.701	1.49
297.076	1.59
297.452	1.54
297.828	1.44
298.203	1.63
298.579	1.45
298.954	1.47
299.33	1.46
299.705	1.47
300.081	1.57
300.456	1.51
300.831	1.39
301.206	1.45
301.582	1.59
301.957	1.44
302.332	1.59
302.707	1.46
303.082	1.42
303.457	1.48
303.832	1.5
304.207	1.42
304.582	1.47
304.957	1.46
305.332	1.54
305.707	1.55
306.082	1.62
306.456	1.59
306.831	1.39
307.206	1.52
307.58	1.47
307.955	1.41
308.33	1.57
308.704	1.61
309.079	1.5
309.453	1.58
309.828	1.51
310.202	1.42
310.576	1.43
310.951	1.47
311.325	1.5
311.699	1.47
312.073	1.49
312.447	1.55
312.821	1.4
313.196	1.63
313.57	1.44
313.944	1.42
314.317	1.48
314.691	1.38
315.065	1.45
315.439	1.5
315.813	1.48
316.187	1.43
316.56	1.54
316.934	1.49
317.308	1.5
317.681	1.47
318.055	1.5
318.428	1.45
318.802	1.54
319.175	1.56
319.549	1.42
319.922	1.4
320.295	1.44
320.669	1.72
321.042	1.47
321.415	1.7
321.788	1.44
322.162	1.48
322.535	1.55
322.908	1.54
323.281	1.53
323.654	1.67
324.027	1.58
324.4	1.52
324.773	1.54
325.145	1.53
325.518	1.51
325.891	1.41
326.264	1.56
326.636	1.55
327.009	1.39
327.382	1.42
327.754	1.52
328.127	1.61
328.499	1.49
328.872	1.45
329.244	1.5
329.616	1.35
329.989	1.44
330.361	1.45
330.733	1.49
331.106	1.4
331.478	1.62
331.85	1.4
332.222	1.52
332.594	1.49
332.966	1.57
333.338	1.65
333.71	1.63
334.082	1.52
334.454	1.48
334.826	1.58
335.197	1.48
335.569	1.52
335.941	1.48
336.312	1.47
336.684	1.49
337.056	1.54
337.427	1.49
337.799	1.61
338.17	1.63
338.542	1.36
338.913	1.53
339.284	1.66
339.656	1.49
340.027	1.57
340.398	1.55
340.769	1.55
341.141	1.72
341.512	1.47
341.883	1.53
342.254	1.53
342.625	1.57
342.996	1.52
343.367	1.51
343.738	1.45
344.108	1.46
344.479	1.54
344.85	1.38
345.221	1.55
345.591	1.33
345.962	1.44
346.333	1.49
346.703	1.33
347.074	1.38
347.444	1.33
347.815	1.48
348.185	1.4
348.556	1.43
348.926	1.34
349.296	1.39
349.666	1.42
350.037	1.3
350.407	1.31
350.777	1.29
351.147	1.33
351.517	1.54
351.887	1.33
352.257	1.54
352.627	1.42
352.997	1.37
353.367	1.45
353.737	1.41
354.106	1.45
354.476	1.34
354.846	1.46
355.216	1.43
355.585	1.46
355.955	1.38
356.324	1.35
356.694	1.43
357.063	1.36
357.433	1.31
357.802	1.42
358.171	1.4
358.541	1.37
358.91	1.35
359.279	1.45
359.648	1.31
360.017	1.33
360.387	1.35
360.756	1.24
361.125	1.31
361.494	1.36
361.863	1.28
362.231	1.24
362.6	1.32
362.969	1.42
363.338	1.24
363.707	1.39
364.075	1.31
364.444	1.19
364.813	1.27
365.181	1.31
365.55	1.19
365.918	1.31
366.287	1.28
366.655	1.31
367.024	1.31
367.392	1.3
367.76	1.24
368.128	1.26
368.497	1.22
368.865	1.34
369.233	1.31
369.601	1.28
369.969	1.27
370.337	1.28
370.705	1.27
371.073	1.28
371.441	1.23
371.809	1.25
372.177	1.24
372.544	1.26
372.912	1.31
373.28	1.24
373.647	1.32
374.015	1.33
374.383	1.4
374.75	1.4
375.118	1.33
375.485	1.27
375.853	1.37
376.22	1.36
376.587	1.28
376.955	1.37
377.322	1.37
377.689	1.24
378.056	1.27
378.423	1.32
378.79	1.37
379.157	1.32
379.524	1.28
379.891	1.28
380.258	1.36
380.625	1.34
380.992	1.34
381.359	1.29
381.726	1.55
382.092	1.37
382.459	1.35
382.826	1.36
383.192	1.29
383.559	1.41
383.925	1.52
384.292	1.35
384.658	1.44
385.025	1.37
385.391	1.49
385.757	1.38
386.123	1.48
386.49	1.46
386.856	1.4
387.222	1.52
387.588	1.36
387.954	1.6
388.32	1.56
388.686	1.39
389.052	1.43
389.418	1.5
389.784	1.34
390.15	1.55
390.515	1.3
390.881	1.56
391.247	1.4
391.613	1.48
391.978	1.38
392.344	1.62
392.709	1.41
393.075	1.5
393.44	1.63
393.806	1.47
394.171	1.44
394.536	1.42
394.902	1.38
395.267	1.41
395.632	1.38
395.997	1.41
396.362	1.46
396.727	1.51
397.092	1.4
397.457	1.38
397.822	1.35
398.187	1.46
398.552	1.44
398.917	1.52
399.282	1.31
399.646	1.39
400.011	1.43
400.376	1.3
400.74	1.29
401.105	1.33
401.47	1.34
401.834	1.37
402.199	1.39
402.563	1.3
402.927	1.32
403.292	1.36
403.656	1.32
404.02	1.39
404.384	1.38
404.749	1.34
405.113	1.3
405.477	1.31
405.841	1.41
406.205	1.32
406.569	1.31
406.933	1.31
407.296	1.4
407.66	1.27
408.024	1.26
408.388	1.29
408.752	1.3
409.115	1.29
409.479	1.26
409.842	1.16
410.206	1.2
410.569	1.24
410.933	1.19
411.296	1.13
411.66	1.21
412.023	1.17
412.386	1.19
412.749	1.12
413.113	1.18
413.476	1.16
413.839	1.14
414.202	1.13
414.565	1.08
414.928	1.18
415.291	1.1
415.654	1.11
416.017	1.14
416.38	1.09
416.742	1.06
417.105	1.05
417.468	1.11
417.83	1.06
418.193	1.12
418.556	1.04
418.918	1.05
419.281	1.11
419.643	1.11
420.005	1.08
420.368	1.07
420.73	1.04
421.092	1.08
421.455	1.09
421.817	1.03
422.179	1.01
422.541	1.07
422.903	1.13
423.265	1.09
423.627	1.06
423.989	1.02
424.351	1.04
424.713	1.03
425.075	1.06
425.436	1.02
425.798	0.99
426.16	1.1
426.521	1
426.883	1.02
427.245	0.99
427.606	1
427.967	1.01
428.329	1.01
428.69	0.97
429.052	1
429.413	1.02
429.774	1
430.135	0.98
430.497	1.02
430.858	0.98
431.219	0.98
431.58	0.94
431.941	0.95
432.302	0.99
432.663	0.98
433.024	0.99
433.384	0.97
433.745	0.95
434.106	0.95
434.467	0.95
434.827	0.99
435.188	0.97
435.548	0.96
435.909	0.94
436.269	0.95
436.63	0.94
436.99	0.91
437.351	0.89
437.711	0.94
438.071	0.88
438.431	0.91
438.792	0.91
439.152	0.92
439.512	0.87
439.872	0.9
440.232	0.92
440.592	0.92
440.952	0.9
441.312	0.86
441.671	0.86
442.031	0.86
442.391	0.85
442.751	0.87
443.11	0.86
443.47	0.84
443.83	0.85
444.189	0.82
444.549	0.83
444.908	0.82
445.267	0.83
445.627	0.82
445.986	0.82
446.345	0.8
446.705	0.79
447.064	0.78
447.423	0.8
447.782	0.81
448.141	0.8
448.5	0.78
448.859	0.76
449.218	0.78
449.577	0.79
449.936	0.79
450.295	0.76
450.653	0.75
451.012	0.75
451.371	0.74
451.729	0.75
452.088	0.74
452.447	0.75
452.805	0.75
453.163	0.75
453.522	0.74
453.88	0.71
454.239	0.71
454.597	0.7
454.955	0.68
455.313	0.68
455.671	0.68
456.029	0.68
456.388	0.68
456.746	0.67
457.104	0.66
457.461	0.66
457.819	0.64
458.177	0.64
458.535	0.63
458.893	0.63
459.25	0.62
459.608	0.61
459.966	0.6
460.323	0.6
460.681	0.58
461.038	0.58
461.396	0.57
461.753	0.58
462.111	0.56
462.468	0.55
462.825	0.55
463.182	0.55
463.54	0.53
463.897	0.54
464.254	0.53
464.611	0.52
464.968	0.52
465.325	0.52
465.682	0.51
466.039	0.51
466.395	0.5
466.752	0.49
467.109	0.49
467.466	0.48
467.822	0.48
468.179	0.47
468.535	0.46
468.892	0.46
469.248	0.45
469.605	0.44
469.961	0.44
470.318	0.45
470.674	0.44
471.03	0.43
471.386	0.43
471.743	0.42
472.099	0.42
472.455	0.42
472.811	0.39
473.167	0.4
473.523	0.39
473.879	0.39
474.235	0.38
474.59	0.38
474.946	0.36
475.302	0.37
475.657	0.37
476.013	0.35
476.369	0.35
476.724	0.36
477.08	0.35
477.435	0.35
477.791	0.35
478.146	0.34
478.501	0.33
478.857	0.33
479.212	0.32
479.567	0.32
479.922	0.31
480.277	0.31
480.632	0.3
480.987	0.31
481.342	0.3
481.697	0.28
482.052	0.28
482.407	0.28
482.762	0.28
483.116	0.28
483.471	0.27
483.826	0.26
484.18	0.27
484.535	0.26
484.89	0.26
485.244	0.26
485.598	0.26
485.953	0.25
486.307	0.25
486.661	0.25
487.016	0.25
487.37	0.25
487.724	0.25
488.078	0.24
488.432	0.24
488.786	0.24
489.14	0.23
489.494	0.23
489.848	0.23
490.202	0.22
490.556	0.22
490.91	0.22
491.263	0.22
491.617	0.22
491.971	0.22
492.324	0.21
492.678	0.21
493.031	0.22
493.385	0.21
493.738	0.21
494.091	0.2
494.445	0.22
494.798	0.2
495.151	0.2
495.504	0.2
495.857	0.2
496.21	0.2
496.564	0.19
496.916	0.2
497.269	0.19
497.622	0.19
497.975	0.19
498.328	0.19
498.681	0.19
499.033	0.18
499.386	0.18
499.739	0.18
500.091	0.19
500.444	0.18
500.796	0.18
501.149	0.18
501.501	0.18
501.854	0.18
502.206	0.18
502.558	0.18
502.91	0.18
503.263	0.17
503.615	0.18
503.967	0.18
504.319	0.18
504.671	0.17
505.023	0.17
505.375	0.17
505.726	0.18
506.078	0.17
506.43	0.17
506.782	0.17
507.133	0.16
507.485	0.17
507.837	0.18
508.188	0.17
508.54	0.17
508.891	0.18
509.243	0.17
509.594	0.17
509.945	0.17
510.296	0.16
510.648	0.17
510.999	0.16
511.35	0.17
511.701	0.17
512.052	0.17
512.403	0.17
512.754	0.16
513.105	0.17
513.456	0.17
513.807	0.16
514.157	0.17
514.508	0.17
514.859	0.16
515.209	0.16
515.56	0.17
515.91	0.16
516.261	0.16
516.611	0.16
516.962	0.17
517.312	0.17
517.662	0.17
518.013	0.17
518.363	0.16
518.713	0.17
519.063	0.17
519.413	0.17
519.763	0.16
520.113	0.17
520.463	0.17
520.813	0.18
521.163	0.17
521.512	0.17
521.862	0.17
522.212	0.17
522.562	0.17
522.911	0.18
523.261	0.17
523.61	0.17
523.96	0.17
524.309	0.18
524.658	0.17
525.008	0.17
525.357	0.17
525.706	0.18
526.056	0.16
526.405	0.17
526.754	0.17
527.103	0.16
527.452	0.17
527.801	0.18
528.15	0.17
528.499	0.17
528.847	0.17
529.196	0.18
529.545	0.18
529.893	0.17
530.242	0.17
530.591	0.17
530.939	0.18
531.288	0.18
531.636	0.19
531.985	0.18
532.333	0.18
532.681	0.18
533.029	0.18
533.378	0.18
533.726	0.18
534.074	0.19
534.422	0.18
534.77	0.18
535.118	0.18
535.466	0.18
535.814	0.18
536.162	0.18
536.509	0.18
536.857	0.18
537.205	0.19
537.552	0.19
537.9	0.18
538.248	0.17
538.595	0.19
538.943	0.18
539.29	0.19
539.637	0.18
539.985	0.18
540.332	0.18
540.679	0.18
541.026	0.17
541.373	0.18
541.721	0.17
542.068	0.18
542.415	0.18
542.762	0.18
543.108	0.17
543.455	0.17
543.802	0.17
544.149	0.18
544.496	0.18
544.842	0.17
545.189	0.16
545.535	0.17
545.882	0.17
546.228	0.16
546.575	0.17
546.921	0.16
547.267	0.17
547.614	0.17
547.96	0.17
548.306	0.17
548.652	0.17
548.998	0.18
549.344	0.17
549.69	0.18
550.036	0.17
550.382	0.17
550.728	0.17
551.074	0.18
551.42	0.18
551.765	0.18
552.111	0.18
552.457	0.18
552.802	0.18
553.148	0.17
553.493	0.18
553.839	0.18
554.184	0.17
554.529	0.17
554.875	0.18
555.22	0.18
555.565	0.17
555.91	0.17
556.255	0.19
556.6	0.19
556.945	0.18
557.29	0.18
557.635	0.19
557.98	0.18
558.325	0.18
558.67	0.19
559.014	0.19
559.359	0.19
559.704	0.18
560.048	0.17
560.393	0.18
560.737	0.17
561.082	0.18
561.426	0.16
561.77	0.18
562.115	0.17
562.459	0.17
562.803	0.18
563.147	0.18
563.491	0.18
563.835	0.19
564.179	0.18
564.523	0.18
564.867	0.18
565.211	0.18
565.555	0.18
565.899	0.18
566.242	0.18
566.586	0.17
566.93	0.19
567.273	0.19
567.617	0.18
567.96	0.18
568.304	0.18
568.647	0.19
568.99	0.18
569.334	0.19
569.677	0.18
570.02	0.19
570.363	0.19
570.706	0.18
571.049	0.18
571.392	0.18
571.735	0.18
572.078	0.19
572.421	0.2
572.764	0.19
573.106	0.19
573.449	0.18
573.792	0.18
574.134	0.19
574.477	0.19
574.819	0.19
575.162	0.19
575.504	0.18
575.847	0.18
576.189	0.19
576.531	0.18
576.873	0.18
577.215	0.18
577.558	0.19
577.9	0.18
578.242	0.18
578.584	0.18
578.926	0.19
579.267	0.19
579.609	0.18
579.951	0.18
580.293	0.18
580.634	0.19
580.976	0.19
581.318	0.18
581.659	0.18
582.001	0.18
582.342	0.18
582.683	0.18
583.025	0.17
583.366	0.17
583.707	0.18
584.049	0.18
584.39	0.18
584.731	0.18
585.072	0.17
585.413	0.18
585.754	0.18
586.095	0.18
586.435	0.18
586.776	0.18
587.117	0.17
587.458	0.18
587.798	0.18
588.139	0.18
588.48	0.17
588.82	0.18
589.161	0.18
589.501	0.18
589.841	0.18
590.182	0.18
590.522	0.18
590.862	0.17
591.202	0.18
591.542	0.18
591.882	0.18
592.222	0.18
592.562	0.18
592.902	0.18
593.242	0.18
593.582	0.18
593.922	0.18
594.261	0.17
594.601	0.18
594.941	0.17
595.28	0.18
595.62	0.17
595.959	0.18
596.299	0.18
596.638	0.18
596.977	0.18
597.317	0.19
597.656	0.18
597.995	0.18
598.334	0.19
598.673	0.18
599.012	0.19
599.351	0.19
599.69	0.18
600.029	0.19
600.368	0.19
600.707	0.18
601.046	0.18
601.384	0.19
601.723	0.18
602.061	0.17
602.4	0.19
602.738	0.18
603.077	0.19
603.415	0.18
603.754	0.19
604.092	0.18
604.43	0.18
604.768	0.18
605.107	0.19
605.445	0.18
605.783	0.17
606.121	0.17
606.459	0.18
606.796	0.18
607.134	0.17
607.472	0.18
607.81	0.18
608.148	0.17
608.485	0.18
608.823	0.18
609.16	0.18
609.498	0.18
609.835	0.18
610.173	0.17
610.51	0.18
610.847	0.18
611.185	0.18
611.522	0.18
611.859	0.18
612.196	0.18
612.533	0.18
612.87	0.18
613.207	0.19
613.544	0.18
613.881	0.18
614.217	0.18
614.554	0.18
614.891	0.18
615.228	0.19
615.564	0.19
615.901	0.19
616.237	0.19
616.574	0.18
616.91	0.19
617.246	0.18
617.583	0.19
617.919	0.19
618.255	0.19
618.591	0.18
618.927	0.18
619.263	0.19
619.599	0.18
619.935	0.17
620.271	0.18
620.607	0.18
620.943	0.18
621.279	0.18
621.614	0.18
621.95	0.19
622.286	0.18
622.621	0.17
622.957	0.18
623.292	0.18
623.627	0.17
623.963	0.17
624.298	0.17
624.633	0.17
624.968	0.17
625.304	0.17
625.639	0.18
625.974	0.17
626.309	0.17
626.644	0.17
626.979	0.18
627.313	0.17
627.648	0.17
627.983	0.17
628.318	0.17
628.652	0.16
628.987	0.17
629.321	0.17
629.656	0.16
629.99	0.16
630.325	0.17
630.659	0.16
630.993	0.16
631.327	0.16
631.662	0.15
631.996	0.15
632.33	0.15
632.664	0.16
632.998	0.16
633.332	0.16
633.666	0.16
633.999	0.16
634.333	0.16
634.667	0.16
635.001	0.15
635.334	0.15
635.668	0.15
636.001	0.16
636.335	0.16
636.668	0.16
637.001	0.15
637.335	0.15
637.668	0.15
638.001	0.16
638.334	0.16
638.668	0.15
639.001	0.16
639.334	0.15
639.667	0.14
639.999	0.15
640.332	0.15
640.665	0.15
640.998	0.16
641.331	0.15
641.663	0.15
641.996	0.15
642.328	0.16
642.661	0.15
642.993	0.16
643.326	0.15
643.658	0.15
643.99	0.15
644.323	0.15
644.655	0.15
644.987	0.15
645.319	0.15
645.651	0.16
645.983	0.15
646.315	0.15
646.647	0.15
646.979	0.15
647.31	0.15
647.642	0.15
647.974	0.15
648.305	0.16
648.637	0.15
648.968	0.15
649.3	0.15
649.631	0.15
649.963	0.15
650.294	0.15
650.625	0.15
650.957	0.15
651.288	0.16
651.619	0.15
651.95	0.15
652.281	0.16
652.612	0.15
652.943	0.16
653.274	0.16
653.604	0.15
653.935	0.15
654.266	0.16
654.596	0.15
654.927	0.15
655.258	0.15
655.588	0.15
655.918	0.15
656.249	0.13
656.579	0.14
656.909	0.15
657.24	0.15
657.57	0.15
657.9	0.14
658.23	0.15
658.56	0.15
658.89	0.15
659.22	0.14
659.55	0.14
659.88	0.15
660.209	0.15
660.539	0.16
660.869	0.15
661.198	0.15
661.528	0.15
661.857	0.14
662.187	0.14
662.516	0.15
662.846	0.14
663.175	0.14
663.504	0.14
663.833	0.14
664.163	0.14
664.492	0.13
664.821	0.14
665.15	0.14
665.479	0.14
665.807	0.14
666.136	0.14
666.465	0.14
666.794	0.14
667.122	0.15
667.451	0.14
667.78	0.14
668.108	0.14
668.437	0.14
668.765	0.14
669.093	0.15
669.422	0.14
669.75	0.15
670.078	0.14
670.406	0.14
670.734	0.14
671.062	0.14
671.39	0.15
671.718	0.15
672.046	0.14
672.374	0.14
672.702	0.13
673.029	0.13
673.357	0.14
673.685	0.14
674.012	0.14
674.34	0.13
674.667	0.14
674.995	0.14
675.322	0.14
675.649	0.13
675.977	0.14
676.304	0.14
676.631	0.14
676.958	0.14
677.285	0.12
677.612	0.13
677.939	0.13
678.266	0.13
678.593	0.13
678.92	0.13
679.246	0.14
679.573	0.13
679.9	0.13
680.226	0.13
680.553	0.13
680.879	0.13
681.206	0.13
681.532	0.13
681.858	0.13
682.184	0.13
682.511	0.13
682.837	0.13
683.163	0.14
683.489	0.13
683.815	0.13
684.141	0.13
684.467	0.13
684.793	0.13
685.118	0.13
685.444	0.13
685.77	0.12
686.095	0.13
686.421	0.12
686.746	0.13
687.072	0.13
687.397	0.12
687.723	0.13
688.048	0.13
688.373	0.12
688.698	0.13
689.023	0.12
689.349	0.12
689.674	0.12
689.999	0.12
690.323	0.11
690.648	0.12
690.973	0.11
691.298	0.12
691.623	0.12
691.947	0.12
692.272	0.11
692.596	0.13
692.921	0.13
693.245	0.12
693.57	0.13
693.894	0.13
694.218	0.13
694.543	0.12
694.867	0.13
695.191	0.12
695.515	0.13
695.839	0.11
696.163	0.12
696.487	0.12
696.811	0.12
697.135	0.12
697.458	0.11
697.782	0.12
698.106	0.12
698.429	0.13
698.753	0.11
699.076	0.12
699.4	0.12
699.723	0.12
700.046	0.11
700.37	0.12
700.693	0.12
701.016	0.12
701.339	0.12
701.662	0.12
701.985	0.12
702.308	0.11
702.631	0.11
702.954	0.12
703.277	0.12
703.599	0.12
703.922	0.11
704.245	0.1
704.567	0.11
704.89	0.12
705.212	0.11
705.535	0.1
705.857	0.1
706.179	0.1
706.502	0.1
706.824	0.1
707.146	0.1
707.468	0.11
707.79	0.11
708.112	0.12
708.434	0.11
708.756	0.11
709.078	0.11
709.399	0.1
709.721	0.1
710.043	0.11
710.364	0.11
710.686	0.11
711.007	0.11
711.329	0.11
711.65	0.12
711.972	0.11
712.293	0.11
712.614	0.11
712.935	0.12
713.256	0.11
713.577	0.12
713.898	0.11
714.219	0.11
714.54	0.11
714.861	0.1
715.182	0.11
715.503	0.1
715.823	0.1
716.144	0.1
716.464	0.1
716.785	0.09
717.105	0.09
717.426	0.1
717.746	0.09
718.066	0.09
718.387	0.09
718.707	0.09
719.027	0.11
719.347	0.09
719.667	0.09
719.987	0.09
720.307	0.09
720.627	0.08
720.947	0.1
721.266	0.09
721.586	0.09
721.906	0.09
722.225	0.09
722.545	0.09
722.864	0.08
723.184	0.1
723.503	0.09
