Data from 12-12-AQDScycling_Absorbance__521__00521.txt Node

Date: Tue Dec 12 13:06:59 EST 2023
User: kyuminlee
Spectrometer: FLMS00943
Trigger mode: 0
Integration Time (sec): 1.000000E-1
Scans to average: 1
Electric dark correction enabled: true
Nonlinearity correction enabled: false
Boxcar width: 0
XAxis mode: Wavelengths
Number of Pixels in Spectrum: 2048
>>>>>Begin Spectral Data<<<<<
179.651	-0
180.037	-0
180.424	-0
180.81	-0.37
181.197	0.34
181.583	0.41
181.97	-0.49
182.356	-0.9
182.743	-0
183.129	-0
183.515	0.11
183.901	-2.39
184.288	-0
184.674	-0
185.06	-1.11
185.446	-0
185.832	-1.54
186.218	-0.13
186.604	-0
186.99	0.02
187.376	-0
187.762	-0
188.148	0.63
188.534	-0.33
188.92	0.09
189.305	0.12
189.691	0.09
190.077	0.12
190.463	0.23
190.848	0.07
191.234	0.08
191.619	0.14
192.005	0.13
192.391	0.11
192.776	0.17
193.161	0.42
193.547	0.12
193.932	0.23
194.318	0.13
194.703	0.16
195.088	0.17
195.473	0.21
195.859	0.26
196.244	0.3
196.629	0.22
197.014	0.2
197.399	0.1
197.784	0.03
198.169	0.21
198.554	0.32
198.939	0.06
199.324	0.22
199.709	0.04
200.094	0.16
200.478	0.16
200.863	0.19
201.248	0.19
201.633	0.08
202.017	0.21
202.402	0.24
202.787	0.19
203.171	0.28
203.556	0.26
203.94	0.13
204.325	0.25
204.709	0.12
205.093	0.16
205.478	0.15
205.862	0.13
206.246	0.24
206.631	0.13
207.015	0.17
207.399	0.29
207.783	0.17
208.167	0.19
208.551	0.26
208.935	0.31
209.319	0.13
209.703	0.18
210.087	0.24
210.471	0.07
210.855	0.18
211.239	0.33
211.623	0.24
212.007	0.37
212.39	0.29
212.774	0.3
213.158	0.25
213.541	0.21
213.925	0.28
214.309	0.35
214.692	0.37
215.076	0.2
215.459	0.14
215.842	0.11
216.226	0.36
216.609	0.33
216.993	0.33
217.376	0.46
217.759	0.28
218.142	0.35
218.525	0.42
218.909	0.63
219.292	0.44
219.675	0.41
220.058	0.48
220.441	0.58
220.824	0.47
221.207	0.62
221.59	0.5
221.973	0.47
222.355	0.58
222.738	0.57
223.121	0.73
223.504	0.62
223.886	0.81
224.269	0.93
224.652	0.7
225.034	0.85
225.417	0.93
225.799	0.81
226.182	0.95
226.564	0.91
226.947	0.76
227.329	0.9
227.711	1.08
228.094	0.97
228.476	0.84
228.858	0.9
229.24	0.96
229.623	0.96
230.005	0.85
230.387	0.85
230.769	0.9
231.151	1.08
231.533	0.92
231.915	0.98
232.297	1.02
232.679	0.95
233.061	0.92
233.442	1.11
233.824	1.04
234.206	1.15
234.588	1.12
234.969	1.14
235.351	1.07
235.733	1.16
236.114	1.21
236.496	1.02
236.877	1.12
237.259	1.02
237.64	1.31
238.022	1.06
238.403	1.01
238.784	1.09
239.165	1.06
239.547	1.04
239.928	1.02
240.309	1.25
240.69	1.11
241.071	1.15
241.452	1.29
241.834	1.17
242.215	1.32
242.595	1.11
242.976	1.25
243.357	1.22
243.738	1.15
244.119	1.37
244.5	1.17
244.881	1.36
245.261	1.51
245.642	1.18
246.023	1.29
246.403	1.22
246.784	1.25
247.164	1.24
247.545	1.32
247.925	1.22
248.306	1.23
248.686	1.5
249.067	1.22
249.447	1.57
249.827	1.74
250.207	1.44
250.588	1.31
250.968	1.44
251.348	1.43
251.728	1.5
252.108	1.47
252.488	1.39
252.868	1.33
253.248	1.32
253.628	1.41
254.008	1.5
254.388	1.36
254.768	1.38
255.147	1.52
255.527	1.57
255.907	1.37
256.287	1.44
256.666	1.58
257.046	1.58
257.425	1.58
257.805	1.32
258.184	1.3
258.564	1.49
258.943	1.35
259.323	1.53
259.702	1.45
260.081	1.51
260.461	1.55
260.84	1.5
261.219	1.7
261.598	1.55
261.977	1.52
262.356	1.56
262.736	1.48
263.115	1.63
263.494	1.46
263.873	1.46
264.251	1.5
264.63	1.59
265.009	1.44
265.388	1.47
265.767	1.33
266.145	1.45
266.524	1.4
266.903	1.5
267.281	1.39
267.66	1.45
268.039	1.47
268.417	1.48
268.796	1.43
269.174	1.49
269.552	1.4
269.931	1.66
270.309	1.44
270.687	1.58
271.066	1.63
271.444	1.44
271.822	1.47
272.2	1.54
272.578	1.49
272.956	1.48
273.334	1.34
273.712	1.46
274.09	1.45
274.468	1.38
274.846	1.39
275.224	1.36
275.602	1.52
275.98	1.72
276.357	1.59
276.735	1.56
277.113	1.52
277.49	1.35
277.868	1.28
278.246	1.6
278.623	1.26
279.001	1.27
279.378	1.57
279.756	1.45
280.133	1.48
280.51	1.42
280.888	1.48
281.265	1.32
281.642	1.58
282.019	1.48
282.396	1.48
282.773	1.72
283.151	1.58
283.528	1.62
283.905	1.44
284.282	1.53
284.659	1.4
285.035	1.36
285.412	1.32
285.789	1.46
286.166	1.74
286.543	1.49
286.919	1.49
287.296	1.36
287.673	1.65
288.049	1.57
288.426	1.62
288.802	1.58
289.179	1.5
289.555	1.65
289.932	1.44
290.308	1.4
290.684	1.33
291.061	1.33
291.437	1.47
291.813	1.45
292.189	1.36
292.565	1.25
292.942	1.33
293.318	1.4
293.694	1.59
294.07	1.38
294.446	1.54
294.822	1.52
295.197	1.43
295.573	1.48
295.949	1.52
296.325	1.59
296.701	1.66
297.076	1.46
297.452	1.74
297.828	1.43
298.203	1.79
298.579	1.4
298.954	1.51
299.33	1.42
299.705	1.39
300.081	1.59
300.456	1.48
300.831	1.48
301.206	1.4
301.582	1.71
301.957	1.32
302.332	1.6
302.707	1.42
303.082	1.44
303.457	1.52
303.832	1.38
304.207	1.4
304.582	1.43
304.957	1.49
305.332	1.49
305.707	1.45
306.082	1.48
306.456	1.49
306.831	1.36
307.206	1.56
307.58	1.48
307.955	1.4
308.33	1.43
308.704	1.37
309.079	1.36
309.453	1.5
309.828	1.39
310.202	1.32
310.576	1.42
310.951	1.46
311.325	1.52
311.699	1.32
312.073	1.3
312.447	1.38
312.821	1.31
313.196	1.44
313.57	1.34
313.944	1.38
314.317	1.37
314.691	1.48
315.065	1.42
315.439	1.44
315.813	1.43
316.187	1.38
316.56	1.53
316.934	1.46
317.308	1.39
317.681	1.55
318.055	1.34
318.428	1.4
318.802	1.47
319.175	1.44
319.549	1.4
319.922	1.21
320.295	1.36
320.669	1.62
321.042	1.36
321.415	1.57
321.788	1.41
322.162	1.45
322.535	1.55
322.908	1.43
323.281	1.37
323.654	1.52
324.027	1.36
324.4	1.46
324.773	1.42
325.145	1.45
325.518	1.32
325.891	1.36
326.264	1.76
326.636	1.42
327.009	1.46
327.382	1.47
327.754	1.52
328.127	1.44
328.499	1.48
328.872	1.44
329.244	1.5
329.616	1.41
329.989	1.51
330.361	1.49
330.733	1.44
331.106	1.38
331.478	1.55
331.85	1.5
332.222	1.41
332.594	1.45
332.966	1.53
333.338	1.62
333.71	1.5
334.082	1.76
334.454	1.44
334.826	1.67
335.197	1.47
335.569	1.49
335.941	1.5
336.312	1.55
336.684	1.51
337.056	1.56
337.427	1.56
337.799	1.58
338.17	1.43
338.542	1.43
338.913	1.58
339.284	1.55
339.656	1.45
340.027	1.5
340.398	1.59
340.769	1.62
341.141	1.67
341.512	1.53
341.883	1.59
342.254	1.47
342.625	1.52
342.996	1.47
343.367	1.46
343.738	1.49
344.108	1.4
344.479	1.47
344.85	1.36
345.221	1.53
345.591	1.44
345.962	1.58
346.333	1.59
346.703	1.3
347.074	1.39
347.444	1.31
347.815	1.5
348.185	1.5
348.556	1.34
348.926	1.37
349.296	1.34
349.666	1.33
350.037	1.33
350.407	1.3
350.777	1.32
351.147	1.43
351.517	1.39
351.887	1.34
352.257	1.33
352.627	1.25
352.997	1.27
353.367	1.32
353.737	1.49
354.106	1.41
354.476	1.34
354.846	1.5
355.216	1.45
355.585	1.51
355.955	1.38
356.324	1.46
356.694	1.35
357.063	1.35
357.433	1.38
357.802	1.37
358.171	1.46
358.541	1.38
358.91	1.44
359.279	1.32
359.648	1.34
360.017	1.36
360.387	1.38
360.756	1.3
361.125	1.42
361.494	1.41
361.863	1.35
362.231	1.29
362.6	1.37
362.969	1.45
363.338	1.39
363.707	1.48
364.075	1.48
364.444	1.31
364.813	1.43
365.181	1.39
365.55	1.42
365.918	1.44
366.287	1.39
366.655	1.48
367.024	1.46
367.392	1.38
367.76	1.33
368.128	1.46
368.497	1.4
368.865	1.43
369.233	1.32
369.601	1.37
369.969	1.38
370.337	1.38
370.705	1.36
371.073	1.44
371.441	1.38
371.809	1.32
372.177	1.33
372.544	1.49
372.912	1.44
373.28	1.37
373.647	1.43
374.015	1.57
374.383	1.47
374.75	1.56
375.118	1.39
375.485	1.57
375.853	1.5
376.22	1.49
376.587	1.42
376.955	1.49
377.322	1.51
377.689	1.39
378.056	1.42
378.423	1.39
378.79	1.54
379.157	1.52
379.524	1.4
379.891	1.43
380.258	1.52
380.625	1.51
380.992	1.39
381.359	1.44
381.726	1.61
382.092	1.42
382.459	1.46
382.826	1.58
383.192	1.37
383.559	1.47
383.925	1.5
384.292	1.42
384.658	1.65
385.025	1.45
385.391	1.72
385.757	1.62
386.123	1.58
386.49	1.61
386.856	1.56
387.222	1.51
387.588	1.6
387.954	1.69
388.32	1.67
388.686	1.62
389.052	1.48
389.418	1.69
389.784	1.55
390.15	1.68
390.515	1.47
390.881	1.55
391.247	1.49
391.613	1.68
391.978	1.5
392.344	1.74
392.709	1.68
393.075	1.63
393.44	1.54
393.806	1.52
394.171	1.56
394.536	1.52
394.902	1.54
395.267	1.4
395.632	1.47
395.997	1.51
396.362	1.6
396.727	1.49
397.092	1.48
397.457	1.5
397.822	1.53
398.187	1.66
398.552	1.41
398.917	1.6
399.282	1.43
399.646	1.58
400.011	1.67
400.376	1.51
400.74	1.5
401.105	1.44
401.47	1.47
401.834	1.46
402.199	1.55
402.563	1.43
402.927	1.42
403.292	1.67
403.656	1.46
404.02	1.49
404.384	1.48
404.749	1.41
405.113	1.45
405.477	1.53
405.841	1.4
406.205	1.53
406.569	1.38
406.933	1.4
407.296	1.45
407.66	1.47
408.024	1.75
408.388	1.47
408.752	1.52
409.115	1.49
409.479	1.43
409.842	1.37
410.206	1.32
410.569	1.33
410.933	1.45
411.296	1.25
411.66	1.36
412.023	1.25
412.386	1.35
412.749	1.27
413.113	1.41
413.476	1.31
413.839	1.29
414.202	1.37
414.565	1.25
414.928	1.28
415.291	1.33
415.654	1.22
416.017	1.31
416.38	1.31
416.742	1.22
417.105	1.24
417.468	1.24
417.83	1.28
418.193	1.38
418.556	1.22
418.918	1.32
419.281	1.23
419.643	1.32
420.005	1.25
420.368	1.31
420.73	1.24
421.092	1.25
421.455	1.21
421.817	1.18
422.179	1.21
422.541	1.2
422.903	1.29
423.265	1.33
423.627	1.24
423.989	1.21
424.351	1.22
424.713	1.27
425.075	1.17
425.436	1.22
425.798	1.18
426.16	1.26
426.521	1.17
426.883	1.25
427.245	1.23
427.606	1.15
427.967	1.16
428.329	1.19
428.69	1.23
429.052	1.21
429.413	1.24
429.774	1.24
430.135	1.24
430.497	1.19
430.858	1.18
431.219	1.18
431.58	1.11
431.941	1.17
432.302	1.11
432.663	1.14
433.024	1.24
433.384	1.17
433.745	1.1
434.106	1.15
434.467	1.13
434.827	1.11
435.188	1.14
435.548	1.17
435.909	1.13
436.269	1.13
436.63	1.12
436.99	1.12
437.351	1.08
437.711	1.1
438.071	1.07
438.431	1.11
438.792	1.08
439.152	1.05
439.512	1.01
439.872	1.05
440.232	1.07
440.592	1.07
440.952	1.03
441.312	1.04
441.671	1.03
442.031	1.06
442.391	1.05
442.751	1.04
443.11	1.03
443.47	0.98
443.83	0.98
444.189	1.01
444.549	1.03
444.908	1.02
445.267	0.97
445.627	0.96
445.986	0.95
446.345	0.92
446.705	0.95
447.064	0.97
447.423	0.91
447.782	0.95
448.141	0.92
448.5	0.9
448.859	0.91
449.218	0.89
449.577	0.94
449.936	0.91
450.295	0.91
450.653	0.93
451.012	0.89
451.371	0.91
451.729	0.89
452.088	0.9
452.447	0.89
452.805	0.87
453.163	0.87
453.522	0.83
453.88	0.85
454.239	0.83
454.597	0.83
454.955	0.8
455.313	0.81
455.671	0.81
456.029	0.78
456.388	0.79
456.746	0.78
457.104	0.79
457.461	0.76
457.819	0.75
458.177	0.75
458.535	0.75
458.893	0.73
459.25	0.72
459.608	0.72
459.966	0.7
460.323	0.7
460.681	0.67
461.038	0.69
461.396	0.68
461.753	0.67
462.111	0.66
462.468	0.65
462.825	0.63
463.182	0.63
463.54	0.62
463.897	0.63
464.254	0.62
464.611	0.61
464.968	0.61
465.325	0.61
465.682	0.59
466.039	0.59
466.395	0.58
466.752	0.57
467.109	0.56
467.466	0.57
467.822	0.55
468.179	0.54
468.535	0.54
468.892	0.53
469.248	0.51
469.605	0.52
469.961	0.51
470.318	0.51
470.674	0.5
471.03	0.49
471.386	0.49
471.743	0.49
472.099	0.47
472.455	0.47
472.811	0.46
473.167	0.46
473.523	0.44
473.879	0.44
474.235	0.43
474.59	0.42
474.946	0.41
475.302	0.42
475.657	0.4
476.013	0.4
476.369	0.39
476.724	0.4
477.08	0.39
477.435	0.38
477.791	0.38
478.146	0.38
478.501	0.37
478.857	0.37
479.212	0.37
479.567	0.36
479.922	0.35
480.277	0.35
480.632	0.34
480.987	0.34
481.342	0.33
481.697	0.32
482.052	0.32
482.407	0.33
482.762	0.32
483.116	0.31
483.471	0.3
483.826	0.3
484.18	0.3
484.535	0.29
484.89	0.29
485.244	0.29
485.598	0.29
485.953	0.28
486.307	0.28
486.661	0.28
487.016	0.27
487.37	0.27
487.724	0.27
488.078	0.27
488.432	0.27
488.786	0.26
489.14	0.26
489.494	0.25
489.848	0.25
490.202	0.24
490.556	0.25
490.91	0.24
491.263	0.24
491.617	0.24
491.971	0.24
492.324	0.23
492.678	0.24
493.031	0.24
493.385	0.23
493.738	0.23
494.091	0.23
494.445	0.22
494.798	0.23
495.151	0.22
495.504	0.22
495.857	0.21
496.21	0.22
496.564	0.21
496.916	0.22
497.269	0.21
497.622	0.21
497.975	0.21
498.328	0.2
498.681	0.2
499.033	0.2
499.386	0.2
499.739	0.2
500.091	0.19
500.444	0.2
500.796	0.2
501.149	0.19
501.501	0.2
501.854	0.19
502.206	0.19
502.558	0.19
502.91	0.19
503.263	0.19
503.615	0.19
503.967	0.19
504.319	0.19
504.671	0.19
505.023	0.18
505.375	0.18
505.726	0.18
506.078	0.18
506.43	0.18
506.782	0.18
507.133	0.18
507.485	0.18
507.837	0.19
508.188	0.18
508.54	0.18
508.891	0.18
509.243	0.18
509.594	0.19
509.945	0.18
510.296	0.18
510.648	0.18
510.999	0.18
511.35	0.18
511.701	0.18
512.052	0.19
512.403	0.18
512.754	0.18
513.105	0.18
513.456	0.17
513.807	0.18
514.157	0.18
514.508	0.18
514.859	0.17
515.209	0.17
515.56	0.17
515.91	0.17
516.261	0.18
516.611	0.17
516.962	0.18
517.312	0.17
517.662	0.18
518.013	0.18
518.363	0.18
518.713	0.18
519.063	0.18
519.413	0.18
519.763	0.17
520.113	0.18
520.463	0.18
520.813	0.18
521.163	0.18
521.512	0.18
521.862	0.18
522.212	0.18
522.562	0.18
522.911	0.17
523.261	0.18
523.61	0.18
523.96	0.18
524.309	0.18
524.658	0.18
525.008	0.17
525.357	0.17
525.706	0.18
526.056	0.17
526.405	0.18
526.754	0.17
527.103	0.17
527.452	0.18
527.801	0.18
528.15	0.18
528.499	0.18
528.847	0.17
529.196	0.19
529.545	0.18
529.893	0.19
530.242	0.18
530.591	0.18
530.939	0.19
531.288	0.19
531.636	0.19
531.985	0.18
532.333	0.18
532.681	0.18
533.029	0.18
533.378	0.18
533.726	0.18
534.074	0.19
534.422	0.18
534.77	0.19
535.118	0.18
535.466	0.19
535.814	0.18
536.162	0.18
536.509	0.18
536.857	0.18
537.205	0.19
537.552	0.19
537.9	0.18
538.248	0.18
538.595	0.19
538.943	0.19
539.29	0.18
539.637	0.18
539.985	0.19
540.332	0.18
540.679	0.19
541.026	0.18
541.373	0.19
541.721	0.18
542.068	0.18
542.415	0.18
542.762	0.18
543.108	0.17
543.455	0.17
543.802	0.17
544.149	0.18
544.496	0.18
544.842	0.17
545.189	0.17
545.535	0.17
545.882	0.18
546.228	0.17
546.575	0.17
546.921	0.17
547.267	0.17
547.614	0.18
547.96	0.18
548.306	0.18
548.652	0.18
548.998	0.18
549.344	0.18
549.69	0.18
550.036	0.18
550.382	0.18
550.728	0.17
551.074	0.19
551.42	0.18
551.765	0.18
552.111	0.19
552.457	0.19
552.802	0.18
553.148	0.18
553.493	0.18
553.839	0.18
554.184	0.19
554.529	0.17
554.875	0.18
555.22	0.19
555.565	0.19
555.91	0.19
556.255	0.19
556.6	0.18
556.945	0.18
557.29	0.18
557.635	0.19
557.98	0.18
558.325	0.19
558.67	0.18
559.014	0.18
559.359	0.18
559.704	0.19
560.048	0.18
560.393	0.19
560.737	0.18
561.082	0.19
561.426	0.18
561.77	0.18
562.115	0.18
562.459	0.19
562.803	0.19
563.147	0.19
563.491	0.19
563.835	0.2
564.179	0.19
564.523	0.18
564.867	0.18
565.211	0.18
565.555	0.18
565.899	0.2
566.242	0.19
566.586	0.18
566.93	0.18
567.273	0.2
567.617	0.19
567.96	0.19
568.304	0.19
568.647	0.18
568.99	0.19
569.334	0.2
569.677	0.2
570.02	0.2
570.363	0.19
570.706	0.18
571.049	0.19
571.392	0.19
571.735	0.18
572.078	0.2
572.421	0.19
572.764	0.19
573.106	0.19
573.449	0.19
573.792	0.18
574.134	0.19
574.477	0.19
574.819	0.19
575.162	0.19
575.504	0.19
575.847	0.19
576.189	0.19
576.531	0.19
576.873	0.19
577.215	0.18
577.558	0.19
577.9	0.17
578.242	0.18
578.584	0.19
578.926	0.19
579.267	0.18
579.609	0.19
579.951	0.19
580.293	0.19
580.634	0.19
580.976	0.19
581.318	0.18
581.659	0.18
582.001	0.19
582.342	0.18
582.683	0.19
583.025	0.18
583.366	0.18
583.707	0.19
584.049	0.18
584.39	0.18
584.731	0.18
585.072	0.18
585.413	0.19
585.754	0.19
586.095	0.18
586.435	0.18
586.776	0.19
587.117	0.18
587.458	0.19
587.798	0.19
588.139	0.18
588.48	0.18
588.82	0.18
589.161	0.18
589.501	0.18
589.841	0.18
590.182	0.18
590.522	0.18
590.862	0.18
591.202	0.18
591.542	0.18
591.882	0.19
592.222	0.18
592.562	0.19
592.902	0.18
593.242	0.18
593.582	0.19
593.922	0.19
594.261	0.18
594.601	0.17
594.941	0.17
595.28	0.18
595.62	0.18
595.959	0.18
596.299	0.18
596.638	0.18
596.977	0.19
597.317	0.19
597.656	0.18
597.995	0.18
598.334	0.19
598.673	0.18
599.012	0.18
599.351	0.19
599.69	0.18
600.029	0.19
600.368	0.19
600.707	0.19
601.046	0.18
601.384	0.2
601.723	0.19
602.061	0.18
602.4	0.19
602.738	0.19
603.077	0.19
603.415	0.18
603.754	0.19
604.092	0.18
604.43	0.18
604.768	0.19
605.107	0.18
605.445	0.18
605.783	0.18
606.121	0.18
606.459	0.18
606.796	0.18
607.134	0.18
607.472	0.18
607.81	0.18
608.148	0.18
608.485	0.18
608.823	0.18
609.16	0.17
609.498	0.18
609.835	0.17
610.173	0.18
610.51	0.18
610.847	0.18
611.185	0.19
611.522	0.17
611.859	0.18
612.196	0.19
612.533	0.18
612.87	0.18
613.207	0.19
613.544	0.19
613.881	0.19
614.217	0.18
614.554	0.18
614.891	0.18
615.228	0.19
615.564	0.18
615.901	0.19
616.237	0.19
616.574	0.18
616.91	0.19
617.246	0.19
617.583	0.19
617.919	0.19
618.255	0.19
618.591	0.19
618.927	0.18
619.263	0.19
619.599	0.19
619.935	0.19
620.271	0.19
620.607	0.19
620.943	0.19
621.279	0.18
621.614	0.19
621.95	0.18
622.286	0.18
622.621	0.18
622.957	0.19
623.292	0.18
623.627	0.17
623.963	0.17
624.298	0.18
624.633	0.18
624.968	0.17
625.304	0.17
625.639	0.17
625.974	0.17
626.309	0.18
626.644	0.17
626.979	0.18
627.313	0.17
627.648	0.17
627.983	0.17
628.318	0.16
628.652	0.17
628.987	0.17
629.321	0.17
629.656	0.17
629.99	0.16
630.325	0.17
630.659	0.16
630.993	0.17
631.327	0.16
631.662	0.16
631.996	0.16
632.33	0.17
632.664	0.17
632.998	0.16
633.332	0.16
633.666	0.16
633.999	0.16
634.333	0.16
634.667	0.16
635.001	0.16
635.334	0.16
635.668	0.16
636.001	0.16
636.335	0.16
636.668	0.16
637.001	0.15
637.335	0.16
637.668	0.15
638.001	0.16
638.334	0.16
638.668	0.15
639.001	0.16
639.334	0.15
639.667	0.15
639.999	0.15
640.332	0.16
640.665	0.16
640.998	0.16
641.331	0.16
641.663	0.15
641.996	0.15
642.328	0.16
642.661	0.16
642.993	0.15
643.326	0.16
643.658	0.15
643.99	0.15
644.323	0.15
644.655	0.15
644.987	0.15
645.319	0.14
645.651	0.15
645.983	0.15
646.315	0.14
646.647	0.15
646.979	0.16
647.31	0.15
647.642	0.15
647.974	0.15
648.305	0.16
648.637	0.15
648.968	0.15
649.3	0.16
649.631	0.16
649.963	0.15
650.294	0.15
650.625	0.16
650.957	0.16
651.288	0.16
651.619	0.15
651.95	0.15
652.281	0.16
652.612	0.15
652.943	0.16
653.274	0.16
653.604	0.16
653.935	0.15
654.266	0.15
654.596	0.15
654.927	0.15
655.258	0.15
655.588	0.16
655.918	0.15
656.249	0.13
656.579	0.14
656.909	0.15
657.24	0.14
657.57	0.15
657.9	0.15
658.23	0.15
658.56	0.15
658.89	0.15
659.22	0.15
659.55	0.15
659.88	0.15
660.209	0.15
660.539	0.16
660.869	0.15
661.198	0.15
661.528	0.14
661.857	0.15
662.187	0.15
662.516	0.15
662.846	0.14
663.175	0.14
663.504	0.15
663.833	0.13
664.163	0.15
664.492	0.14
664.821	0.14
665.15	0.14
665.479	0.15
665.807	0.14
666.136	0.15
666.465	0.14
666.794	0.14
667.122	0.14
667.451	0.14
667.78	0.15
668.108	0.14
668.437	0.14
668.765	0.14
669.093	0.15
669.422	0.14
669.75	0.14
670.078	0.14
670.406	0.14
670.734	0.14
671.062	0.13
671.39	0.13
671.718	0.14
672.046	0.13
672.374	0.13
672.702	0.13
673.029	0.13
673.357	0.14
673.685	0.14
674.012	0.14
674.34	0.13
674.667	0.14
674.995	0.14
675.322	0.14
675.649	0.13
675.977	0.14
676.304	0.13
676.631	0.13
676.958	0.13
677.285	0.13
677.612	0.13
677.939	0.13
678.266	0.14
678.593	0.13
678.92	0.14
679.246	0.13
679.573	0.13
679.9	0.13
680.226	0.14
680.553	0.12
680.879	0.13
681.206	0.13
681.532	0.13
681.858	0.13
682.184	0.14
682.511	0.13
682.837	0.12
683.163	0.13
683.489	0.12
683.815	0.13
684.141	0.12
684.467	0.12
684.793	0.11
685.118	0.13
685.444	0.12
685.77	0.12
686.095	0.13
686.421	0.12
686.746	0.13
687.072	0.13
687.397	0.12
687.723	0.13
688.048	0.13
688.373	0.12
688.698	0.12
689.023	0.12
689.349	0.12
689.674	0.13
689.999	0.12
690.323	0.12
690.648	0.12
690.973	0.12
691.298	0.12
691.623	0.12
691.947	0.12
692.272	0.12
692.596	0.12
692.921	0.12
693.245	0.12
693.57	0.13
693.894	0.13
694.218	0.13
694.543	0.12
694.867	0.12
695.191	0.12
695.515	0.12
695.839	0.12
696.163	0.12
696.487	0.12
696.811	0.12
697.135	0.13
697.458	0.11
697.782	0.12
698.106	0.12
698.429	0.12
698.753	0.12
699.076	0.12
699.4	0.11
699.723	0.12
700.046	0.11
700.37	0.12
700.693	0.12
701.016	0.11
701.339	0.11
701.662	0.12
701.985	0.13
702.308	0.11
702.631	0.12
702.954	0.11
703.277	0.11
703.599	0.12
703.922	0.11
704.245	0.1
704.567	0.11
704.89	0.11
705.212	0.11
705.535	0.1
705.857	0.1
706.179	0.1
706.502	0.1
706.824	0.11
707.146	0.1
707.468	0.11
707.79	0.11
708.112	0.11
708.434	0.1
708.756	0.11
709.078	0.11
709.399	0.1
709.721	0.1
710.043	0.11
710.364	0.1
710.686	0.11
711.007	0.1
711.329	0.11
711.65	0.1
711.972	0.1
712.293	0.11
712.614	0.11
712.935	0.12
713.256	0.11
713.577	0.11
713.898	0.11
714.219	0.1
714.54	0.11
714.861	0.09
715.182	0.1
715.503	0.1
715.823	0.1
716.144	0.09
716.464	0.09
716.785	0.09
717.105	0.09
717.426	0.09
717.746	0.09
718.066	0.09
718.387	0.09
718.707	0.09
719.027	0.1
719.347	0.08
719.667	0.09
719.987	0.09
720.307	0.09
720.627	0.09
720.947	0.08
721.266	0.09
721.586	0.09
721.906	0.09
722.225	0.08
722.545	0.09
722.864	0.08
723.184	0.09
