Data from 12-12-AQDScycling_Absorbance__666__00666.txt Node

Date: Tue Dec 12 13:43:14 EST 2023
User: kyuminlee
Spectrometer: FLMS00943
Trigger mode: 0
Integration Time (sec): 1.000000E-1
Scans to average: 1
Electric dark correction enabled: true
Nonlinearity correction enabled: false
Boxcar width: 0
XAxis mode: Wavelengths
Number of Pixels in Spectrum: 2048
>>>>>Begin Spectral Data<<<<<
179.651	0.39
180.037	0.39
180.424	0.39
180.81	-0
181.197	0.25
181.583	-0.13
181.97	-0.15
182.356	-0
182.743	-0
183.129	0.93
183.515	0.66
183.901	-2.11
184.288	0.43
184.674	-0
185.06	-0
185.446	-0.3
185.832	-0
186.218	0.28
186.604	2.05
186.99	-0
187.376	0.07
187.762	-0.15
188.148	0.12
188.534	-0.13
188.92	0.14
189.305	0.05
189.691	0.33
190.077	0.18
190.463	0.07
190.848	0.03
191.234	0.06
191.619	0.02
192.005	0.06
192.391	0.35
192.776	0.12
193.161	0.18
193.547	0.03
193.932	-0.04
194.318	0.08
194.703	0.18
195.088	0.12
195.473	0.15
195.859	0.08
196.244	0.15
196.629	0.05
197.014	0.15
197.399	0.15
197.784	0.11
198.169	0.18
198.554	0.2
198.939	0.13
199.324	0.16
199.709	0.08
200.094	0.07
200.478	-0.03
200.863	0.17
201.248	0.03
201.633	0.15
202.017	0.06
202.402	0.3
202.787	0.08
203.171	0.25
203.556	0.19
203.94	0.07
204.325	0.17
204.709	0.13
205.093	-0
205.478	0.27
205.862	0.12
206.246	0.03
206.631	0.1
207.015	0.03
207.399	0.19
207.783	0.26
208.167	0.2
208.551	0.18
208.935	0.19
209.319	0.15
209.703	0.2
210.087	0.2
210.471	0.05
210.855	0.16
211.239	0.17
211.623	0.23
212.007	0.28
212.39	0.21
212.774	0.04
213.158	0.13
213.541	0.21
213.925	0.24
214.309	0.28
214.692	0.25
215.076	0.1
215.459	0.1
215.842	0.27
216.226	0.25
216.609	0.31
216.993	0.12
217.376	0.45
217.759	0.2
218.142	0.42
218.525	0.49
218.909	0.31
219.292	0.37
219.675	0.45
220.058	0.47
220.441	0.59
220.824	0.51
221.207	0.5
221.59	0.46
221.973	0.45
222.355	0.63
222.738	0.7
223.121	0.61
223.504	0.55
223.886	0.69
224.269	0.71
224.652	0.72
225.034	0.78
225.417	0.6
225.799	0.95
226.182	0.82
226.564	0.75
226.947	0.73
227.329	0.8
227.711	0.96
228.094	0.93
228.476	0.87
228.858	0.91
229.24	0.83
229.623	0.87
230.005	0.81
230.387	0.81
230.769	0.76
231.151	1.03
231.533	0.78
231.915	0.84
232.297	0.97
232.679	0.96
233.061	1.04
233.442	0.99
233.824	0.97
234.206	1.07
234.588	0.95
234.969	1.13
235.351	0.92
235.733	1.05
236.114	1.23
236.496	1.11
236.877	1.01
237.259	0.97
237.64	1.03
238.022	0.97
238.403	0.97
238.784	1.07
239.165	0.93
239.547	1.02
239.928	1.06
240.309	1
240.69	1.06
241.071	1.13
241.452	1.01
241.834	1.04
242.215	1.05
242.595	1.1
242.976	1.2
243.357	1.14
243.738	1.1
244.119	1.16
244.5	1.03
244.881	1.23
245.261	1.09
245.642	1.08
246.023	1.1
246.403	1.17
246.784	1.22
247.164	1.3
247.545	1.37
247.925	1.33
248.306	1.16
248.686	1.35
249.067	1.23
249.447	1.37
249.827	1.47
250.207	1.44
250.588	1.35
250.968	1.48
251.348	1.28
251.728	1.43
252.108	1.26
252.488	1.47
252.868	1.33
253.248	1.37
253.628	1.25
254.008	1.36
254.388	1.3
254.768	1.21
255.147	1.37
255.527	1.33
255.907	1.3
256.287	1.32
256.666	1.46
257.046	1.54
257.425	1.38
257.805	1.21
258.184	1.28
258.564	1.29
258.943	1.37
259.323	1.51
259.702	1.39
260.081	1.48
260.461	1.35
260.84	1.47
261.219	1.49
261.598	1.5
261.977	1.46
262.356	1.5
262.736	1.54
263.115	1.67
263.494	1.36
263.873	1.32
264.251	1.4
264.63	1.42
265.009	1.42
265.388	1.49
265.767	1.27
266.145	1.3
266.524	1.45
266.903	1.44
267.281	1.36
267.66	1.69
268.039	1.34
268.417	1.54
268.796	1.44
269.174	1.34
269.552	1.42
269.931	1.43
270.309	1.48
270.687	1.68
271.066	1.59
271.444	1.25
271.822	1.54
272.2	1.37
272.578	1.36
272.956	1.57
273.334	1.31
273.712	1.42
274.09	1.36
274.468	1.3
274.846	1.31
275.224	1.37
275.602	1.57
275.98	1.58
276.357	1.29
276.735	1.38
277.113	1.42
277.49	1.31
277.868	1.34
278.246	1.41
278.623	1.28
279.001	1.34
279.378	1.3
279.756	1.33
280.133	1.62
280.51	1.4
280.888	1.37
281.265	1.32
281.642	1.41
282.019	1.56
282.396	1.5
282.773	1.4
283.151	1.5
283.528	1.52
283.905	1.36
284.282	1.52
284.659	1.61
285.035	1.34
285.412	1.37
285.789	1.44
286.166	1.62
286.543	1.38
286.919	1.52
287.296	1.4
287.673	1.7
288.049	1.54
288.426	1.58
288.802	1.5
289.179	1.45
289.555	1.57
289.932	1.51
290.308	1.35
290.684	1.36
291.061	1.39
291.437	1.46
291.813	1.53
292.189	1.44
292.565	1.25
292.942	1.26
293.318	1.27
293.694	1.5
294.07	1.3
294.446	1.44
294.822	1.52
295.197	1.4
295.573	1.44
295.949	1.44
296.325	1.4
296.701	1.43
297.076	1.66
297.452	1.54
297.828	1.38
298.203	1.64
298.579	1.48
298.954	1.51
299.33	1.49
299.705	1.43
300.081	1.51
300.456	1.51
300.831	1.49
301.206	1.39
301.582	1.56
301.957	1.5
302.332	1.73
302.707	1.47
303.082	1.39
303.457	1.5
303.832	1.36
304.207	1.49
304.582	1.37
304.957	1.44
305.332	1.48
305.707	1.48
306.082	1.49
306.456	1.66
306.831	1.56
307.206	1.47
307.58	1.55
307.955	1.47
308.33	1.58
308.704	1.5
309.079	1.46
309.453	1.74
309.828	1.44
310.202	1.42
310.576	1.43
310.951	1.4
311.325	1.41
311.699	1.41
312.073	1.29
312.447	1.41
312.821	1.32
313.196	1.52
313.57	1.32
313.944	1.46
314.317	1.43
314.691	1.43
315.065	1.53
315.439	1.61
315.813	1.53
316.187	1.39
316.56	1.56
316.934	1.45
317.308	1.3
317.681	1.45
318.055	1.41
318.428	1.43
318.802	1.52
319.175	1.39
319.549	1.5
319.922	1.27
320.295	1.41
320.669	1.48
321.042	1.46
321.415	1.73
321.788	1.5
322.162	1.4
322.535	1.55
322.908	1.45
323.281	1.38
323.654	1.59
324.027	1.42
324.4	1.57
324.773	1.48
325.145	1.57
325.518	1.37
325.891	1.38
326.264	1.52
326.636	1.37
327.009	1.47
327.382	1.41
327.754	1.47
328.127	1.44
328.499	1.55
328.872	1.4
329.244	1.42
329.616	1.44
329.989	1.41
330.361	1.47
330.733	1.39
331.106	1.34
331.478	1.7
331.85	1.44
332.222	1.44
332.594	1.5
332.966	1.5
333.338	1.79
333.71	1.5
334.082	1.62
334.454	1.43
334.826	1.53
335.197	1.55
335.569	1.47
335.941	1.41
336.312	1.33
336.684	1.41
337.056	1.51
337.427	1.52
337.799	1.57
338.17	1.54
338.542	1.4
338.913	1.41
339.284	1.56
339.656	1.41
340.027	1.51
340.398	1.56
340.769	1.41
341.141	1.6
341.512	1.57
341.883	1.51
342.254	1.63
342.625	1.56
342.996	1.4
343.367	1.53
343.738	1.51
344.108	1.39
344.479	1.65
344.85	1.44
345.221	1.73
345.591	1.48
345.962	1.58
346.333	1.42
346.703	1.31
347.074	1.34
347.444	1.28
347.815	1.37
348.185	1.34
348.556	1.4
348.926	1.29
349.296	1.28
349.666	1.32
350.037	1.19
350.407	1.29
350.777	1.33
351.147	1.37
351.517	1.34
351.887	1.28
352.257	1.37
352.627	1.26
352.997	1.32
353.367	1.27
353.737	1.43
354.106	1.38
354.476	1.33
354.846	1.46
355.216	1.37
355.585	1.48
355.955	1.42
356.324	1.45
356.694	1.28
357.063	1.39
357.433	1.29
357.802	1.35
358.171	1.46
358.541	1.32
358.91	1.33
359.279	1.39
359.648	1.27
360.017	1.27
360.387	1.37
360.756	1.22
361.125	1.29
361.494	1.31
361.863	1.22
362.231	1.25
362.6	1.25
362.969	1.35
363.338	1.24
363.707	1.36
364.075	1.39
364.444	1.24
364.813	1.31
365.181	1.3
365.55	1.27
365.918	1.32
366.287	1.28
366.655	1.29
367.024	1.29
367.392	1.37
367.76	1.27
368.128	1.29
368.497	1.33
368.865	1.21
369.233	1.27
369.601	1.28
369.969	1.28
370.337	1.29
370.705	1.25
371.073	1.31
371.441	1.22
371.809	1.23
372.177	1.2
372.544	1.32
372.912	1.33
373.28	1.29
373.647	1.26
374.015	1.35
374.383	1.43
374.75	1.32
375.118	1.29
375.485	1.28
375.853	1.28
376.22	1.24
376.587	1.29
376.955	1.37
377.322	1.34
377.689	1.28
378.056	1.26
378.423	1.24
378.79	1.27
379.157	1.32
379.524	1.3
379.891	1.27
380.258	1.27
380.625	1.28
380.992	1.4
381.359	1.31
381.726	1.42
382.092	1.42
382.459	1.33
382.826	1.36
383.192	1.44
383.559	1.32
383.925	1.33
384.292	1.33
384.658	1.4
385.025	1.42
385.391	1.48
385.757	1.53
386.123	1.38
386.49	1.38
386.856	1.42
387.222	1.45
387.588	1.34
387.954	1.64
388.32	1.49
388.686	1.44
389.052	1.43
389.418	1.41
389.784	1.36
390.15	1.42
390.515	1.29
390.881	1.48
391.247	1.41
391.613	1.47
391.978	1.34
392.344	1.54
392.709	1.46
393.075	1.45
393.44	1.43
393.806	1.44
394.171	1.3
394.536	1.35
394.902	1.39
395.267	1.32
395.632	1.29
395.997	1.34
396.362	1.38
396.727	1.38
397.092	1.43
397.457	1.32
397.822	1.29
398.187	1.35
398.552	1.41
398.917	1.38
399.282	1.31
399.646	1.34
400.011	1.48
400.376	1.34
400.74	1.33
401.105	1.35
401.47	1.43
401.834	1.27
402.199	1.35
402.563	1.35
402.927	1.3
403.292	1.37
403.656	1.33
404.02	1.35
404.384	1.37
404.749	1.31
405.113	1.3
405.477	1.33
405.841	1.34
406.205	1.27
406.569	1.23
406.933	1.24
407.296	1.3
407.66	1.32
408.024	1.25
408.388	1.36
408.752	1.34
409.115	1.22
409.479	1.26
409.842	1.2
410.206	1.18
410.569	1.19
410.933	1.31
411.296	1.12
411.66	1.27
412.023	1.22
412.386	1.21
412.749	1.16
413.113	1.12
413.476	1.09
413.839	1.11
414.202	1.14
414.565	1.1
414.928	1.13
415.291	1.06
415.654	1.15
416.017	1.18
416.38	1.04
416.742	1.09
417.105	1.08
417.468	1.09
417.83	1.13
418.193	1.15
418.556	1.08
418.918	1.08
419.281	1.08
419.643	1.13
420.005	1.08
420.368	1.08
420.73	1.1
421.092	1.15
421.455	1.08
421.817	1.03
422.179	1.05
422.541	1.05
422.903	1.07
423.265	1.06
423.627	1.08
423.989	1.02
424.351	1.02
424.713	1.07
425.075	1.04
425.436	1.05
425.798	1.07
426.16	1.06
426.521	1.05
426.883	1.03
427.245	1.05
427.606	1.01
427.967	0.96
428.329	1.01
428.69	1.02
429.052	0.99
429.413	1.02
429.774	1.03
430.135	1
430.497	1.04
430.858	0.99
431.219	1.01
431.58	0.97
431.941	0.97
432.302	0.98
432.663	0.96
433.024	1.02
433.384	1.01
433.745	0.99
434.106	0.98
434.467	0.95
434.827	0.95
435.188	0.96
435.548	1
435.909	0.96
436.269	0.96
436.63	0.94
436.99	0.95
437.351	0.9
437.711	0.95
438.071	0.94
438.431	0.92
438.792	0.93
439.152	0.9
439.512	0.91
439.872	0.91
440.232	0.91
440.592	0.89
440.952	0.91
441.312	0.87
441.671	0.88
442.031	0.87
442.391	0.87
442.751	0.89
443.11	0.87
443.47	0.83
443.83	0.88
444.189	0.86
444.549	0.83
444.908	0.85
445.267	0.83
445.627	0.84
445.986	0.81
446.345	0.81
446.705	0.81
447.064	0.8
447.423	0.78
447.782	0.8
448.141	0.81
448.5	0.76
448.859	0.78
449.218	0.78
449.577	0.78
449.936	0.77
450.295	0.76
450.653	0.78
451.012	0.77
451.371	0.78
451.729	0.77
452.088	0.77
452.447	0.76
452.805	0.76
453.163	0.75
453.522	0.74
453.88	0.72
454.239	0.72
454.597	0.7
454.955	0.7
455.313	0.71
455.671	0.7
456.029	0.68
456.388	0.67
456.746	0.68
457.104	0.67
457.461	0.65
457.819	0.66
458.177	0.65
458.535	0.65
458.893	0.65
459.25	0.63
459.608	0.62
459.966	0.62
460.323	0.62
460.681	0.59
461.038	0.6
461.396	0.57
461.753	0.57
462.111	0.58
462.468	0.56
462.825	0.57
463.182	0.56
463.54	0.54
463.897	0.55
464.254	0.53
464.611	0.54
464.968	0.53
465.325	0.53
465.682	0.51
466.039	0.51
466.395	0.51
466.752	0.5
467.109	0.49
467.466	0.5
467.822	0.48
468.179	0.46
468.535	0.46
468.892	0.47
469.248	0.46
469.605	0.45
469.961	0.45
470.318	0.45
470.674	0.44
471.03	0.44
471.386	0.43
471.743	0.42
472.099	0.41
472.455	0.42
472.811	0.4
473.167	0.41
473.523	0.4
473.879	0.39
474.235	0.39
474.59	0.38
474.946	0.37
475.302	0.37
475.657	0.36
476.013	0.36
476.369	0.35
476.724	0.36
477.08	0.35
477.435	0.35
477.791	0.34
478.146	0.34
478.501	0.34
478.857	0.33
479.212	0.33
479.567	0.32
479.922	0.31
480.277	0.31
480.632	0.3
480.987	0.31
481.342	0.3
481.697	0.3
482.052	0.29
482.407	0.29
482.762	0.29
483.116	0.28
483.471	0.27
483.826	0.27
484.18	0.27
484.535	0.26
484.89	0.26
485.244	0.26
485.598	0.26
485.953	0.26
486.307	0.26
486.661	0.26
487.016	0.25
487.37	0.25
487.724	0.25
488.078	0.24
488.432	0.24
488.786	0.23
489.14	0.24
489.494	0.23
489.848	0.23
490.202	0.22
490.556	0.23
490.91	0.22
491.263	0.22
491.617	0.22
491.971	0.22
492.324	0.21
492.678	0.22
493.031	0.22
493.385	0.22
493.738	0.21
494.091	0.21
494.445	0.21
494.798	0.2
495.151	0.21
495.504	0.2
495.857	0.2
496.21	0.2
496.564	0.19
496.916	0.2
497.269	0.19
497.622	0.19
497.975	0.19
498.328	0.19
498.681	0.19
499.033	0.19
499.386	0.18
499.739	0.18
500.091	0.18
500.444	0.19
500.796	0.18
501.149	0.18
501.501	0.18
501.854	0.18
502.206	0.17
502.558	0.18
502.91	0.18
503.263	0.18
503.615	0.18
503.967	0.17
504.319	0.17
504.671	0.17
505.023	0.18
505.375	0.17
505.726	0.17
506.078	0.18
506.43	0.17
506.782	0.17
507.133	0.18
507.485	0.18
507.837	0.18
508.188	0.18
508.54	0.17
508.891	0.18
509.243	0.17
509.594	0.17
509.945	0.17
510.296	0.17
510.648	0.17
510.999	0.16
511.35	0.17
511.701	0.17
512.052	0.17
512.403	0.17
512.754	0.17
513.105	0.16
513.456	0.16
513.807	0.16
514.157	0.17
514.508	0.17
514.859	0.16
515.209	0.17
515.56	0.17
515.91	0.16
516.261	0.18
516.611	0.17
516.962	0.17
517.312	0.17
517.662	0.17
518.013	0.17
518.363	0.17
518.713	0.16
519.063	0.17
519.413	0.17
519.763	0.16
520.113	0.16
520.463	0.17
520.813	0.17
521.163	0.17
521.512	0.17
521.862	0.17
522.212	0.17
522.562	0.17
522.911	0.17
523.261	0.17
523.61	0.17
523.96	0.17
524.309	0.17
524.658	0.17
525.008	0.17
525.357	0.17
525.706	0.17
526.056	0.17
526.405	0.17
526.754	0.17
527.103	0.17
527.452	0.17
527.801	0.17
528.15	0.17
528.499	0.17
528.847	0.17
529.196	0.18
529.545	0.18
529.893	0.18
530.242	0.18
530.591	0.18
530.939	0.18
531.288	0.18
531.636	0.18
531.985	0.18
532.333	0.18
532.681	0.18
533.029	0.18
533.378	0.18
533.726	0.18
534.074	0.18
534.422	0.18
534.77	0.17
535.118	0.18
535.466	0.19
535.814	0.18
536.162	0.19
536.509	0.18
536.857	0.18
537.205	0.19
537.552	0.18
537.9	0.19
538.248	0.18
538.595	0.19
538.943	0.19
539.29	0.18
539.637	0.18
539.985	0.18
540.332	0.18
540.679	0.18
541.026	0.17
541.373	0.19
541.721	0.18
542.068	0.18
542.415	0.18
542.762	0.18
543.108	0.17
543.455	0.17
543.802	0.18
544.149	0.18
544.496	0.18
544.842	0.17
545.189	0.17
545.535	0.17
545.882	0.18
546.228	0.17
546.575	0.16
546.921	0.17
547.267	0.17
547.614	0.17
547.96	0.17
548.306	0.16
548.652	0.17
548.998	0.17
549.344	0.18
549.69	0.17
550.036	0.18
550.382	0.17
550.728	0.18
551.074	0.18
551.42	0.17
551.765	0.18
552.111	0.19
552.457	0.18
552.802	0.18
553.148	0.17
553.493	0.18
553.839	0.18
554.184	0.19
554.529	0.18
554.875	0.18
555.22	0.18
555.565	0.19
555.91	0.18
556.255	0.19
556.6	0.19
556.945	0.17
557.29	0.18
557.635	0.19
557.98	0.18
558.325	0.18
558.67	0.18
559.014	0.18
559.359	0.18
559.704	0.18
560.048	0.18
560.393	0.18
560.737	0.17
561.082	0.18
561.426	0.17
561.77	0.18
562.115	0.18
562.459	0.18
562.803	0.18
563.147	0.18
563.491	0.18
563.835	0.18
564.179	0.18
564.523	0.18
564.867	0.17
565.211	0.19
565.555	0.18
565.899	0.19
566.242	0.18
566.586	0.18
566.93	0.18
567.273	0.19
567.617	0.18
567.96	0.18
568.304	0.19
568.647	0.18
568.99	0.18
569.334	0.19
569.677	0.18
570.02	0.19
570.363	0.19
570.706	0.17
571.049	0.19
571.392	0.19
571.735	0.19
572.078	0.19
572.421	0.19
572.764	0.19
573.106	0.19
573.449	0.18
573.792	0.18
574.134	0.18
574.477	0.18
574.819	0.18
575.162	0.19
575.504	0.18
575.847	0.18
576.189	0.19
576.531	0.19
576.873	0.18
577.215	0.18
577.558	0.19
577.9	0.18
578.242	0.18
578.584	0.18
578.926	0.19
579.267	0.19
579.609	0.19
579.951	0.18
580.293	0.19
580.634	0.18
580.976	0.2
581.318	0.18
581.659	0.18
582.001	0.18
582.342	0.18
582.683	0.19
583.025	0.18
583.366	0.17
583.707	0.18
584.049	0.18
584.39	0.17
584.731	0.18
585.072	0.17
585.413	0.18
585.754	0.19
586.095	0.18
586.435	0.18
586.776	0.18
587.117	0.18
587.458	0.17
587.798	0.18
588.139	0.18
588.48	0.17
588.82	0.18
589.161	0.18
589.501	0.17
589.841	0.18
590.182	0.18
590.522	0.17
590.862	0.18
591.202	0.18
591.542	0.18
591.882	0.18
592.222	0.18
592.562	0.18
592.902	0.18
593.242	0.18
593.582	0.19
593.922	0.18
594.261	0.18
594.601	0.17
594.941	0.18
595.28	0.18
595.62	0.18
595.959	0.18
596.299	0.18
596.638	0.18
596.977	0.17
597.317	0.18
597.656	0.18
597.995	0.18
598.334	0.19
598.673	0.19
599.012	0.18
599.351	0.19
599.69	0.18
600.029	0.18
600.368	0.19
600.707	0.18
601.046	0.18
601.384	0.18
601.723	0.18
602.061	0.17
602.4	0.18
602.738	0.18
603.077	0.18
603.415	0.18
603.754	0.18
604.092	0.18
604.43	0.19
604.768	0.19
605.107	0.18
605.445	0.18
605.783	0.18
606.121	0.18
606.459	0.18
606.796	0.17
607.134	0.17
607.472	0.17
607.81	0.18
608.148	0.17
608.485	0.18
608.823	0.17
609.16	0.17
609.498	0.17
609.835	0.17
610.173	0.18
610.51	0.18
610.847	0.17
611.185	0.18
611.522	0.18
611.859	0.18
612.196	0.17
612.533	0.18
612.87	0.19
613.207	0.19
613.544	0.18
613.881	0.19
614.217	0.19
614.554	0.18
614.891	0.18
615.228	0.19
615.564	0.19
615.901	0.19
616.237	0.19
616.574	0.18
616.91	0.19
617.246	0.18
617.583	0.18
617.919	0.18
618.255	0.18
618.591	0.18
618.927	0.18
619.263	0.18
619.599	0.19
619.935	0.19
620.271	0.18
620.607	0.18
620.943	0.18
621.279	0.19
621.614	0.19
621.95	0.18
622.286	0.18
622.621	0.18
622.957	0.18
623.292	0.18
623.627	0.17
623.963	0.17
624.298	0.18
624.633	0.17
624.968	0.18
625.304	0.17
625.639	0.17
625.974	0.17
626.309	0.17
626.644	0.17
626.979	0.18
627.313	0.17
627.648	0.17
627.983	0.17
628.318	0.17
628.652	0.17
628.987	0.17
629.321	0.17
629.656	0.16
629.99	0.16
630.325	0.17
630.659	0.16
630.993	0.16
631.327	0.16
631.662	0.15
631.996	0.16
632.33	0.16
632.664	0.17
632.998	0.15
633.332	0.15
633.666	0.16
633.999	0.16
634.333	0.16
634.667	0.16
635.001	0.16
635.334	0.15
635.668	0.15
636.001	0.16
636.335	0.15
636.668	0.16
637.001	0.15
637.335	0.16
637.668	0.15
638.001	0.15
638.334	0.16
638.668	0.15
639.001	0.15
639.334	0.15
639.667	0.15
639.999	0.16
640.332	0.15
640.665	0.16
640.998	0.16
641.331	0.16
641.663	0.16
641.996	0.15
642.328	0.16
642.661	0.16
642.993	0.15
643.326	0.16
643.658	0.15
643.99	0.15
644.323	0.15
644.655	0.15
644.987	0.15
645.319	0.16
645.651	0.15
645.983	0.15
646.315	0.15
646.647	0.15
646.979	0.16
647.31	0.16
647.642	0.15
647.974	0.15
648.305	0.15
648.637	0.14
648.968	0.15
649.3	0.15
649.631	0.16
649.963	0.15
650.294	0.16
650.625	0.15
650.957	0.15
651.288	0.15
651.619	0.16
651.95	0.16
652.281	0.15
652.612	0.16
652.943	0.16
653.274	0.17
653.604	0.15
653.935	0.15
654.266	0.15
654.596	0.14
654.927	0.15
655.258	0.15
655.588	0.15
655.918	0.16
656.249	0.13
656.579	0.14
656.909	0.15
657.24	0.14
657.57	0.15
657.9	0.14
658.23	0.15
658.56	0.15
658.89	0.15
659.22	0.14
659.55	0.15
659.88	0.14
660.209	0.14
660.539	0.15
660.869	0.15
661.198	0.15
661.528	0.15
661.857	0.15
662.187	0.15
662.516	0.15
662.846	0.14
663.175	0.14
663.504	0.14
663.833	0.14
664.163	0.14
664.492	0.14
664.821	0.14
665.15	0.14
665.479	0.14
665.807	0.14
666.136	0.14
666.465	0.14
666.794	0.14
667.122	0.14
667.451	0.14
667.78	0.14
668.108	0.15
668.437	0.15
668.765	0.14
669.093	0.14
669.422	0.15
669.75	0.15
670.078	0.14
670.406	0.15
670.734	0.15
671.062	0.14
671.39	0.14
671.718	0.14
672.046	0.14
672.374	0.14
672.702	0.13
673.029	0.13
673.357	0.14
673.685	0.14
674.012	0.14
674.34	0.13
674.667	0.15
674.995	0.14
675.322	0.14
675.649	0.13
675.977	0.14
676.304	0.13
676.631	0.14
676.958	0.13
677.285	0.12
677.612	0.13
677.939	0.13
678.266	0.14
678.593	0.13
678.92	0.13
679.246	0.13
679.573	0.13
679.9	0.12
680.226	0.13
680.553	0.13
680.879	0.13
681.206	0.13
681.532	0.12
681.858	0.13
682.184	0.13
682.511	0.13
682.837	0.13
683.163	0.13
683.489	0.13
683.815	0.13
684.141	0.13
684.467	0.13
684.793	0.13
685.118	0.13
685.444	0.13
685.77	0.13
686.095	0.14
686.421	0.12
686.746	0.13
687.072	0.12
687.397	0.12
687.723	0.13
688.048	0.12
688.373	0.12
688.698	0.13
689.023	0.12
689.349	0.12
689.674	0.12
689.999	0.12
690.323	0.11
690.648	0.11
690.973	0.12
691.298	0.12
691.623	0.12
691.947	0.12
692.272	0.12
692.596	0.12
692.921	0.13
693.245	0.12
693.57	0.13
693.894	0.13
694.218	0.12
694.543	0.13
694.867	0.13
695.191	0.11
695.515	0.13
695.839	0.12
696.163	0.13
696.487	0.12
696.811	0.13
697.135	0.13
697.458	0.12
697.782	0.12
698.106	0.12
698.429	0.12
698.753	0.11
699.076	0.12
699.4	0.11
699.723	0.12
700.046	0.11
700.37	0.12
700.693	0.11
701.016	0.12
701.339	0.12
701.662	0.12
701.985	0.12
702.308	0.12
702.631	0.11
702.954	0.12
703.277	0.11
703.599	0.11
703.922	0.11
704.245	0.11
704.567	0.11
704.89	0.11
705.212	0.1
705.535	0.1
705.857	0.11
706.179	0.1
706.502	0.11
706.824	0.1
707.146	0.1
707.468	0.11
707.79	0.1
708.112	0.12
708.434	0.11
708.756	0.11
709.078	0.11
709.399	0.11
709.721	0.11
710.043	0.11
710.364	0.1
710.686	0.11
711.007	0.11
711.329	0.11
711.65	0.11
711.972	0.12
712.293	0.11
712.614	0.11
712.935	0.11
713.256	0.11
713.577	0.11
713.898	0.11
714.219	0.11
714.54	0.11
714.861	0.1
715.182	0.11
715.503	0.1
715.823	0.11
716.144	0.1
716.464	0.09
716.785	0.1
717.105	0.09
717.426	0.1
717.746	0.1
718.066	0.09
718.387	0.09
718.707	0.09
719.027	0.1
719.347	0.09
719.667	0.09
719.987	0.09
720.307	0.09
720.627	0.09
720.947	0.09
721.266	0.1
721.586	0.09
721.906	0.09
722.225	0.08
722.545	0.09
722.864	0.09
723.184	0.1
