Data from 12-12-AQDScycling_Absorbance__543__00543.txt Node

Date: Tue Dec 12 13:12:29 EST 2023
User: kyuminlee
Spectrometer: FLMS00943
Trigger mode: 0
Integration Time (sec): 1.000000E-1
Scans to average: 1
Electric dark correction enabled: true
Nonlinearity correction enabled: false
Boxcar width: 0
XAxis mode: Wavelengths
Number of Pixels in Spectrum: 2048
>>>>>Begin Spectral Data<<<<<
179.651	0.84
180.037	0.84
180.424	0.84
180.81	0.17
181.197	0.34
181.583	-0
181.97	-0.32
182.356	-0
182.743	-0
183.129	0.35
183.515	0.87
183.901	-0
184.288	-0
184.674	-0
185.06	-0.4
185.446	-0
185.832	-1.06
186.218	0.51
186.604	-0.59
186.99	-0
187.376	0.94
187.762	0.7
188.148	0.66
188.534	0.27
188.92	0.14
189.305	0.08
189.691	0.3
190.077	0.18
190.463	0.09
190.848	0.04
191.234	0.12
191.619	0.18
192.005	0.08
192.391	0.01
192.776	0.11
193.161	0.23
193.547	0.14
193.932	0.11
194.318	-0.03
194.703	0.18
195.088	0.15
195.473	0.17
195.859	0.19
196.244	0.11
196.629	0.34
197.014	0.18
197.399	0.23
197.784	0.09
198.169	0.09
198.554	0.22
198.939	0.09
199.324	0.02
199.709	0.1
200.094	0.17
200.478	0.07
200.863	0.13
201.248	0.19
201.633	0.02
202.017	0.06
202.402	0.35
202.787	0.13
203.171	0.03
203.556	0.11
203.94	0.01
204.325	0.31
204.709	0.24
205.093	0.13
205.478	0.11
205.862	0.1
206.246	0.17
206.631	0.02
207.015	0.21
207.399	0.14
207.783	0.11
208.167	0.14
208.551	0.24
208.935	0.21
209.319	0.19
209.703	0.17
210.087	0.28
210.471	0.09
210.855	0.11
211.239	0.13
211.623	0.28
212.007	0.34
212.39	0.21
212.774	0.19
213.158	0.1
213.541	0.19
213.925	0.18
214.309	0.49
214.692	0.37
215.076	0.2
215.459	0.31
215.842	0.26
216.226	0.22
216.609	0.3
216.993	0.16
217.376	0.49
217.759	0.25
218.142	0.31
218.525	0.42
218.909	0.38
219.292	0.32
219.675	0.51
220.058	0.38
220.441	0.43
220.824	0.54
221.207	0.51
221.59	0.51
221.973	0.54
222.355	0.6
222.738	0.73
223.121	0.53
223.504	0.54
223.886	0.63
224.269	0.67
224.652	0.7
225.034	0.69
225.417	0.62
225.799	0.72
226.182	0.88
226.564	0.94
226.947	0.8
227.329	0.78
227.711	0.88
228.094	1.01
228.476	0.93
228.858	0.83
229.24	0.88
229.623	0.87
230.005	0.74
230.387	0.81
230.769	0.89
231.151	0.9
231.533	0.91
231.915	0.88
232.297	1.17
232.679	1.01
233.061	0.95
233.442	0.99
233.824	1
234.206	1.11
234.588	1
234.969	1.1
235.351	0.88
235.733	1.08
236.114	1.18
236.496	1.07
236.877	1.14
237.259	1.05
237.64	1.14
238.022	1.07
238.403	1.02
238.784	1.03
239.165	0.95
239.547	1.05
239.928	1.29
240.309	1.04
240.69	1.2
241.071	1.06
241.452	1.03
241.834	1.04
242.215	1.09
242.595	1
242.976	1.05
243.357	1.1
243.738	0.97
244.119	1.29
244.5	1.15
244.881	1.22
245.261	1.16
245.642	1.24
246.023	1.23
246.403	1.23
246.784	1.28
247.164	1.26
247.545	1.21
247.925	1.26
248.306	1.23
248.686	1.28
249.067	1.31
249.447	1.42
249.827	1.64
250.207	1.58
250.588	1.18
250.968	1.55
251.348	1.41
251.728	1.42
252.108	1.39
252.488	1.39
252.868	1.39
253.248	1.31
253.628	1.29
254.008	1.47
254.388	1.23
254.768	1.36
255.147	1.34
255.527	1.58
255.907	1.37
256.287	1.24
256.666	1.35
257.046	1.69
257.425	1.52
257.805	1.29
258.184	1.41
258.564	1.31
258.943	1.37
259.323	1.37
259.702	1.65
260.081	1.47
260.461	1.41
260.84	1.46
261.219	1.58
261.598	1.55
261.977	1.36
262.356	1.6
262.736	1.59
263.115	1.63
263.494	1.34
263.873	1.45
264.251	1.42
264.63	1.51
265.009	1.4
265.388	1.3
265.767	1.33
266.145	1.38
266.524	1.37
266.903	1.48
267.281	1.28
267.66	1.48
268.039	1.66
268.417	1.43
268.796	1.36
269.174	1.3
269.552	1.54
269.931	1.52
270.309	1.65
270.687	1.93
271.066	1.63
271.444	1.4
271.822	1.53
272.2	1.44
272.578	1.31
272.956	1.46
273.334	1.38
273.712	1.58
274.09	1.43
274.468	1.38
274.846	1.48
275.224	1.33
275.602	1.49
275.98	1.66
276.357	1.5
276.735	1.74
277.113	1.31
277.49	1.34
277.868	1.28
278.246	1.33
278.623	1.36
279.001	1.43
279.378	1.33
279.756	1.4
280.133	1.58
280.51	1.42
280.888	1.53
281.265	1.47
281.642	1.51
282.019	1.56
282.396	1.52
282.773	1.46
283.151	1.56
283.528	1.43
283.905	1.46
284.282	1.52
284.659	1.52
285.035	1.36
285.412	1.32
285.789	1.54
286.166	1.5
286.543	1.43
286.919	1.61
287.296	1.35
287.673	1.7
288.049	1.57
288.426	1.55
288.802	1.56
289.179	1.54
289.555	1.58
289.932	1.42
290.308	1.29
290.684	1.35
291.061	1.3
291.437	1.54
291.813	1.37
292.189	1.26
292.565	1.35
292.942	1.33
293.318	1.44
293.694	1.4
294.07	1.28
294.446	1.44
294.822	1.48
295.197	1.42
295.573	1.41
295.949	1.43
296.325	1.5
296.701	1.35
297.076	1.43
297.452	1.44
297.828	1.35
298.203	1.56
298.579	1.41
298.954	1.31
299.33	1.33
299.705	1.37
300.081	1.34
300.456	1.37
300.831	1.24
301.206	1.35
301.582	1.45
301.957	1.39
302.332	1.43
302.707	1.34
303.082	1.25
303.457	1.37
303.832	1.34
304.207	1.29
304.582	1.31
304.957	1.29
305.332	1.37
305.707	1.31
306.082	1.31
306.456	1.33
306.831	1.21
307.206	1.32
307.58	1.28
307.955	1.22
308.33	1.23
308.704	1.2
309.079	1.19
309.453	1.21
309.828	1.19
310.202	1.19
310.576	1.14
310.951	1.16
311.325	1.15
311.699	1.2
312.073	1.15
312.447	1.16
312.821	1.17
313.196	1.17
313.57	1.15
313.944	1.13
314.317	1.09
314.691	1.18
315.065	1.17
315.439	1.2
315.813	1.1
316.187	1.11
316.56	1.16
316.934	1.13
317.308	1.14
317.681	1.18
318.055	1.1
318.428	1.13
318.802	1.09
319.175	1.14
319.549	1.12
319.922	1.11
320.295	1.08
320.669	1.23
321.042	1.14
321.415	1.16
321.788	1.15
322.162	1.13
322.535	1.15
322.908	1.14
323.281	1.14
323.654	1.23
324.027	1.08
324.4	1.22
324.773	1.15
325.145	1.25
325.518	1.07
325.891	1.14
326.264	1.23
326.636	1.09
327.009	1.12
327.382	1.07
327.754	1.22
328.127	1.18
328.499	1.17
328.872	1.17
329.244	1.18
329.616	1.16
329.989	1.18
330.361	1.18
330.733	1.21
331.106	1.12
331.478	1.23
331.85	1.2
332.222	1.17
332.594	1.22
332.966	1.17
333.338	1.23
333.71	1.19
334.082	1.31
334.454	1.16
334.826	1.31
335.197	1.29
335.569	1.25
335.941	1.19
336.312	1.2
336.684	1.16
337.056	1.21
337.427	1.34
337.799	1.36
338.17	1.22
338.542	1.28
338.913	1.27
339.284	1.33
339.656	1.24
340.027	1.26
340.398	1.29
340.769	1.19
341.141	1.31
341.512	1.31
341.883	1.25
342.254	1.3
342.625	1.3
342.996	1.22
343.367	1.32
343.738	1.28
344.108	1.27
344.479	1.47
344.85	1.24
345.221	1.29
345.591	1.17
345.962	1.3
346.333	1.28
346.703	1.2
347.074	1.22
347.444	1.19
347.815	1.29
348.185	1.27
348.556	1.26
348.926	1.21
349.296	1.28
349.666	1.37
350.037	1.24
350.407	1.24
350.777	1.22
351.147	1.27
351.517	1.33
351.887	1.24
352.257	1.37
352.627	1.32
352.997	1.25
353.367	1.32
353.737	1.38
354.106	1.36
354.476	1.33
354.846	1.39
355.216	1.44
355.585	1.45
355.955	1.43
356.324	1.38
356.694	1.47
357.063	1.4
357.433	1.36
357.802	1.4
358.171	1.44
358.541	1.36
358.91	1.44
359.279	1.43
359.648	1.4
360.017	1.55
360.387	1.49
360.756	1.38
361.125	1.43
361.494	1.45
361.863	1.5
362.231	1.39
362.6	1.51
362.969	1.41
363.338	1.43
363.707	1.71
364.075	1.55
364.444	1.43
364.813	1.47
365.181	1.47
365.55	1.45
365.918	1.59
366.287	1.5
366.655	1.52
367.024	1.53
367.392	1.66
367.76	1.42
368.128	1.53
368.497	1.54
368.865	1.45
369.233	1.46
369.601	1.5
369.969	1.52
370.337	1.58
370.705	1.54
371.073	1.44
371.441	1.46
371.809	1.52
372.177	1.5
372.544	1.53
372.912	1.53
373.28	1.56
373.647	1.52
374.015	1.65
374.383	1.83
374.75	1.69
375.118	1.54
375.485	1.68
375.853	1.61
376.22	1.36
376.587	1.5
376.955	1.85
377.322	1.69
377.689	1.61
378.056	1.6
378.423	1.55
378.79	1.48
379.157	1.64
379.524	1.63
379.891	1.38
380.258	1.65
380.625	1.57
380.992	1.61
381.359	1.58
381.726	1.59
382.092	1.53
382.459	1.59
382.826	1.55
383.192	1.81
383.559	1.61
383.925	1.57
384.292	1.45
384.658	1.72
385.025	1.63
385.391	1.68
385.757	1.59
386.123	1.67
386.49	1.59
386.856	1.64
387.222	1.82
387.588	1.6
387.954	1.73
388.32	1.89
388.686	1.6
389.052	1.57
389.418	1.54
389.784	1.61
390.15	1.63
390.515	1.37
390.881	1.81
391.247	1.5
391.613	1.69
391.978	1.44
392.344	1.52
392.709	1.62
393.075	1.56
393.44	1.58
393.806	1.58
394.171	1.5
394.536	1.52
394.902	1.6
395.267	1.38
395.632	1.37
395.997	1.4
396.362	1.46
396.727	1.54
397.092	1.6
397.457	1.6
397.822	1.43
398.187	1.72
398.552	1.58
398.917	1.68
399.282	1.44
399.646	1.51
400.011	1.79
400.376	1.42
400.74	1.53
401.105	1.58
401.47	1.53
401.834	1.66
402.199	1.59
402.563	1.66
402.927	1.57
403.292	1.63
403.656	1.72
404.02	1.48
404.384	1.69
404.749	1.48
405.113	1.65
405.477	1.63
405.841	1.65
406.205	1.61
406.569	1.61
406.933	1.58
407.296	1.66
407.66	1.49
408.024	1.55
408.388	1.65
408.752	1.6
409.115	1.66
409.479	1.64
409.842	1.47
410.206	1.51
410.569	1.49
410.933	1.52
411.296	1.49
411.66	1.57
412.023	1.42
412.386	1.42
412.749	1.39
413.113	1.52
413.476	1.42
413.839	1.56
414.202	1.52
414.565	1.41
414.928	1.4
415.291	1.36
415.654	1.43
416.017	1.48
416.38	1.45
416.742	1.4
417.105	1.43
417.468	1.38
417.83	1.47
418.193	1.67
418.556	1.42
418.918	1.41
419.281	1.43
419.643	1.52
420.005	1.45
420.368	1.44
420.73	1.44
421.092	1.55
421.455	1.48
421.817	1.27
422.179	1.37
422.541	1.42
422.903	1.46
423.265	1.61
423.627	1.45
423.989	1.44
424.351	1.46
424.713	1.48
425.075	1.33
425.436	1.34
425.798	1.43
426.16	1.47
426.521	1.41
426.883	1.53
427.245	1.48
427.606	1.5
427.967	1.47
428.329	1.41
428.69	1.59
429.052	1.43
429.413	1.57
429.774	1.41
430.135	1.42
430.497	1.46
430.858	1.35
431.219	1.54
431.58	1.37
431.941	1.38
432.302	1.3
432.663	1.4
433.024	1.42
433.384	1.47
433.745	1.38
434.106	1.52
434.467	1.39
434.827	1.39
435.188	1.36
435.548	1.47
435.909	1.44
436.269	1.43
436.63	1.37
436.99	1.41
437.351	1.32
437.711	1.41
438.071	1.32
438.431	1.3
438.792	1.42
439.152	1.31
439.512	1.34
439.872	1.32
440.232	1.38
440.592	1.33
440.952	1.31
441.312	1.27
441.671	1.4
442.031	1.33
442.391	1.32
442.751	1.3
443.11	1.29
443.47	1.26
443.83	1.24
444.189	1.19
444.549	1.18
444.908	1.18
445.267	1.25
445.627	1.26
445.986	1.23
446.345	1.2
446.705	1.2
447.064	1.2
447.423	1.19
447.782	1.23
448.141	1.18
448.5	1.17
448.859	1.14
449.218	1.17
449.577	1.19
449.936	1.18
450.295	1.15
450.653	1.16
451.012	1.16
451.371	1.12
451.729	1.13
452.088	1.14
452.447	1.14
452.805	1.11
453.163	1.09
453.522	1.1
453.88	1.07
454.239	1.07
454.597	1.04
454.955	1.04
455.313	1.03
455.671	1.02
456.029	1.03
456.388	1.01
456.746	0.99
457.104	0.99
457.461	0.97
457.819	0.98
458.177	0.94
458.535	0.94
458.893	0.92
459.25	0.9
459.608	0.89
459.966	0.89
460.323	0.88
460.681	0.87
461.038	0.86
461.396	0.85
461.753	0.82
462.111	0.83
462.468	0.81
462.825	0.81
463.182	0.79
463.54	0.78
463.897	0.78
464.254	0.77
464.611	0.75
464.968	0.75
465.325	0.74
465.682	0.72
466.039	0.72
466.395	0.7
466.752	0.7
467.109	0.68
467.466	0.68
467.822	0.67
468.179	0.67
468.535	0.66
468.892	0.65
469.248	0.63
469.605	0.62
469.961	0.62
470.318	0.62
470.674	0.59
471.03	0.58
471.386	0.58
471.743	0.58
472.099	0.56
472.455	0.56
472.811	0.55
473.167	0.54
473.523	0.53
473.879	0.51
474.235	0.51
474.59	0.5
474.946	0.5
475.302	0.49
475.657	0.48
476.013	0.48
476.369	0.46
476.724	0.46
477.08	0.46
477.435	0.45
477.791	0.44
478.146	0.44
478.501	0.43
478.857	0.41
479.212	0.42
479.567	0.4
479.922	0.4
480.277	0.39
480.632	0.39
480.987	0.39
481.342	0.38
481.697	0.37
482.052	0.36
482.407	0.35
482.762	0.35
483.116	0.34
483.471	0.34
483.826	0.33
484.18	0.33
484.535	0.33
484.89	0.31
485.244	0.31
485.598	0.31
485.953	0.31
486.307	0.3
486.661	0.3
487.016	0.29
487.37	0.3
487.724	0.29
488.078	0.28
488.432	0.28
488.786	0.28
489.14	0.27
489.494	0.26
489.848	0.26
490.202	0.26
490.556	0.25
490.91	0.25
491.263	0.25
491.617	0.25
491.971	0.24
492.324	0.24
492.678	0.24
493.031	0.24
493.385	0.24
493.738	0.23
494.091	0.22
494.445	0.23
494.798	0.22
495.151	0.22
495.504	0.22
495.857	0.21
496.21	0.22
496.564	0.2
496.916	0.21
497.269	0.2
497.622	0.2
497.975	0.2
498.328	0.19
498.681	0.19
499.033	0.19
499.386	0.19
499.739	0.19
500.091	0.19
500.444	0.19
500.796	0.19
501.149	0.18
501.501	0.18
501.854	0.18
502.206	0.18
502.558	0.18
502.91	0.18
503.263	0.17
503.615	0.17
503.967	0.16
504.319	0.17
504.671	0.17
505.023	0.17
505.375	0.17
505.726	0.17
506.078	0.16
506.43	0.16
506.782	0.17
507.133	0.16
507.485	0.17
507.837	0.17
508.188	0.17
508.54	0.16
508.891	0.17
509.243	0.16
509.594	0.17
509.945	0.16
510.296	0.16
510.648	0.16
510.999	0.15
511.35	0.15
511.701	0.16
512.052	0.17
512.403	0.16
512.754	0.16
513.105	0.15
513.456	0.15
513.807	0.15
514.157	0.16
514.508	0.15
514.859	0.15
515.209	0.15
515.56	0.15
515.91	0.15
516.261	0.16
516.611	0.14
516.962	0.15
517.312	0.15
517.662	0.15
518.013	0.15
518.363	0.15
518.713	0.15
519.063	0.15
519.413	0.15
519.763	0.15
520.113	0.15
520.463	0.16
520.813	0.15
521.163	0.15
521.512	0.15
521.862	0.15
522.212	0.15
522.562	0.15
522.911	0.15
523.261	0.14
523.61	0.15
523.96	0.15
524.309	0.15
524.658	0.15
525.008	0.15
525.357	0.14
525.706	0.15
526.056	0.15
526.405	0.15
526.754	0.15
527.103	0.14
527.452	0.15
527.801	0.15
528.15	0.15
528.499	0.15
528.847	0.15
529.196	0.15
529.545	0.15
529.893	0.15
530.242	0.15
530.591	0.16
530.939	0.16
531.288	0.16
531.636	0.16
531.985	0.15
532.333	0.15
532.681	0.15
533.029	0.16
533.378	0.16
533.726	0.16
534.074	0.16
534.422	0.15
534.77	0.17
535.118	0.15
535.466	0.15
535.814	0.15
536.162	0.15
536.509	0.16
536.857	0.16
537.205	0.16
537.552	0.16
537.9	0.15
538.248	0.15
538.595	0.15
538.943	0.16
539.29	0.15
539.637	0.15
539.985	0.15
540.332	0.15
540.679	0.15
541.026	0.16
541.373	0.16
541.721	0.15
542.068	0.14
542.415	0.15
542.762	0.15
543.108	0.14
543.455	0.14
543.802	0.15
544.149	0.14
544.496	0.14
544.842	0.15
545.189	0.14
545.535	0.15
545.882	0.14
546.228	0.14
546.575	0.14
546.921	0.15
547.267	0.14
547.614	0.15
547.96	0.15
548.306	0.14
548.652	0.14
548.998	0.15
549.344	0.14
549.69	0.15
550.036	0.15
550.382	0.15
550.728	0.14
551.074	0.16
551.42	0.15
551.765	0.15
552.111	0.15
552.457	0.16
552.802	0.15
553.148	0.15
553.493	0.14
553.839	0.15
554.184	0.15
554.529	0.14
554.875	0.15
555.22	0.16
555.565	0.15
555.91	0.14
556.255	0.16
556.6	0.15
556.945	0.15
557.29	0.15
557.635	0.16
557.98	0.15
558.325	0.15
558.67	0.15
559.014	0.14
559.359	0.16
559.704	0.16
560.048	0.14
560.393	0.15
560.737	0.14
561.082	0.15
561.426	0.14
561.77	0.15
562.115	0.14
562.459	0.15
562.803	0.15
563.147	0.15
563.491	0.15
563.835	0.15
564.179	0.15
564.523	0.15
564.867	0.15
565.211	0.15
565.555	0.15
565.899	0.16
566.242	0.15
566.586	0.15
566.93	0.15
567.273	0.16
567.617	0.15
567.96	0.15
568.304	0.15
568.647	0.15
568.99	0.15
569.334	0.16
569.677	0.16
570.02	0.16
570.363	0.16
570.706	0.16
571.049	0.15
571.392	0.16
571.735	0.16
572.078	0.16
572.421	0.16
572.764	0.15
573.106	0.15
573.449	0.15
573.792	0.15
574.134	0.15
574.477	0.15
574.819	0.15
575.162	0.15
575.504	0.15
575.847	0.15
576.189	0.15
576.531	0.15
576.873	0.16
577.215	0.16
577.558	0.15
577.9	0.15
578.242	0.16
578.584	0.15
578.926	0.15
579.267	0.15
579.609	0.15
579.951	0.15
580.293	0.15
580.634	0.15
580.976	0.16
581.318	0.16
581.659	0.15
582.001	0.15
582.342	0.15
582.683	0.15
583.025	0.14
583.366	0.15
583.707	0.15
584.049	0.14
584.39	0.14
584.731	0.14
585.072	0.14
585.413	0.15
585.754	0.15
586.095	0.15
586.435	0.15
586.776	0.15
587.117	0.15
587.458	0.14
587.798	0.15
588.139	0.15
588.48	0.14
588.82	0.14
589.161	0.14
589.501	0.14
589.841	0.15
590.182	0.14
590.522	0.15
590.862	0.15
591.202	0.14
591.542	0.15
591.882	0.15
592.222	0.15
592.562	0.14
592.902	0.15
593.242	0.14
593.582	0.15
593.922	0.15
594.261	0.14
594.601	0.15
594.941	0.15
595.28	0.14
595.62	0.15
595.959	0.14
596.299	0.15
596.638	0.15
596.977	0.14
597.317	0.15
597.656	0.15
597.995	0.15
598.334	0.16
598.673	0.15
599.012	0.14
599.351	0.15
599.69	0.15
600.029	0.15
600.368	0.15
600.707	0.15
601.046	0.15
601.384	0.16
601.723	0.16
602.061	0.15
602.4	0.14
602.738	0.15
603.077	0.15
603.415	0.15
603.754	0.14
604.092	0.15
604.43	0.15
604.768	0.15
605.107	0.15
605.445	0.15
605.783	0.14
606.121	0.14
606.459	0.14
606.796	0.14
607.134	0.14
607.472	0.15
607.81	0.15
608.148	0.14
608.485	0.15
608.823	0.14
609.16	0.14
609.498	0.15
609.835	0.14
610.173	0.14
610.51	0.15
610.847	0.14
611.185	0.15
611.522	0.15
611.859	0.15
612.196	0.14
612.533	0.14
612.87	0.15
613.207	0.15
613.544	0.15
613.881	0.15
614.217	0.15
614.554	0.15
614.891	0.16
615.228	0.15
615.564	0.15
615.901	0.15
616.237	0.15
616.574	0.15
616.91	0.16
617.246	0.15
617.583	0.15
617.919	0.16
618.255	0.15
618.591	0.15
618.927	0.15
619.263	0.16
619.599	0.16
619.935	0.15
620.271	0.15
620.607	0.15
620.943	0.15
621.279	0.15
621.614	0.16
621.95	0.15
622.286	0.15
622.621	0.15
622.957	0.15
623.292	0.14
623.627	0.15
623.963	0.14
624.298	0.14
624.633	0.14
624.968	0.14
625.304	0.14
625.639	0.14
625.974	0.13
626.309	0.14
626.644	0.15
626.979	0.15
627.313	0.14
627.648	0.14
627.983	0.14
628.318	0.13
628.652	0.13
628.987	0.13
629.321	0.14
629.656	0.13
629.99	0.12
630.325	0.14
630.659	0.13
630.993	0.13
631.327	0.13
631.662	0.12
631.996	0.13
632.33	0.13
632.664	0.13
632.998	0.13
633.332	0.12
633.666	0.13
633.999	0.13
634.333	0.12
634.667	0.13
635.001	0.12
635.334	0.13
635.668	0.12
636.001	0.12
636.335	0.13
636.668	0.13
637.001	0.12
637.335	0.12
637.668	0.12
638.001	0.12
638.334	0.12
638.668	0.13
639.001	0.13
639.334	0.12
639.667	0.12
639.999	0.12
640.332	0.12
640.665	0.12
640.998	0.12
641.331	0.12
641.663	0.13
641.996	0.12
642.328	0.12
642.661	0.12
642.993	0.12
643.326	0.12
643.658	0.12
643.99	0.12
644.323	0.12
644.655	0.12
644.987	0.12
645.319	0.12
645.651	0.13
645.983	0.11
646.315	0.12
646.647	0.12
646.979	0.13
647.31	0.12
647.642	0.12
647.974	0.12
648.305	0.12
648.637	0.12
648.968	0.12
649.3	0.12
649.631	0.13
649.963	0.12
650.294	0.13
650.625	0.12
650.957	0.13
651.288	0.12
651.619	0.13
651.95	0.13
652.281	0.13
652.612	0.12
652.943	0.13
653.274	0.13
653.604	0.12
653.935	0.13
654.266	0.12
654.596	0.12
654.927	0.12
655.258	0.12
655.588	0.13
655.918	0.12
656.249	0.1
656.579	0.11
656.909	0.12
657.24	0.11
657.57	0.12
657.9	0.12
658.23	0.12
658.56	0.13
658.89	0.12
659.22	0.12
659.55	0.12
659.88	0.12
660.209	0.13
660.539	0.14
660.869	0.12
661.198	0.12
661.528	0.12
661.857	0.12
662.187	0.12
662.516	0.12
662.846	0.12
663.175	0.12
663.504	0.12
663.833	0.12
664.163	0.12
664.492	0.11
664.821	0.12
665.15	0.12
665.479	0.12
665.807	0.12
666.136	0.12
666.465	0.11
666.794	0.12
667.122	0.12
667.451	0.12
667.78	0.12
668.108	0.11
668.437	0.11
668.765	0.12
669.093	0.12
669.422	0.11
669.75	0.11
670.078	0.12
670.406	0.12
670.734	0.12
671.062	0.12
671.39	0.11
671.718	0.11
672.046	0.11
672.374	0.11
672.702	0.11
673.029	0.11
673.357	0.11
673.685	0.12
674.012	0.11
674.34	0.11
674.667	0.11
674.995	0.11
675.322	0.12
675.649	0.11
675.977	0.11
676.304	0.11
676.631	0.11
676.958	0.12
677.285	0.1
677.612	0.11
677.939	0.11
678.266	0.11
678.593	0.11
678.92	0.11
679.246	0.1
679.573	0.11
679.9	0.1
680.226	0.11
680.553	0.11
680.879	0.11
681.206	0.11
681.532	0.11
681.858	0.1
682.184	0.11
682.511	0.11
682.837	0.1
683.163	0.11
683.489	0.11
683.815	0.11
684.141	0.11
684.467	0.1
684.793	0.1
685.118	0.1
685.444	0.1
685.77	0.1
686.095	0.1
686.421	0.1
686.746	0.1
687.072	0.11
687.397	0.1
687.723	0.11
688.048	0.11
688.373	0.1
688.698	0.1
689.023	0.1
689.349	0.11
689.674	0.11
689.999	0.1
690.323	0.1
690.648	0.1
690.973	0.1
691.298	0.1
691.623	0.1
691.947	0.1
692.272	0.1
692.596	0.11
692.921	0.11
693.245	0.1
693.57	0.11
693.894	0.11
694.218	0.11
694.543	0.1
694.867	0.1
695.191	0.1
695.515	0.1
695.839	0.09
696.163	0.1
696.487	0.1
696.811	0.1
697.135	0.1
697.458	0.1
697.782	0.09
698.106	0.1
698.429	0.1
698.753	0.1
699.076	0.1
699.4	0.1
699.723	0.1
700.046	0.09
700.37	0.1
700.693	0.1
701.016	0.09
701.339	0.1
701.662	0.1
701.985	0.1
702.308	0.1
702.631	0.1
702.954	0.1
703.277	0.09
703.599	0.1
703.922	0.09
704.245	0.09
704.567	0.09
704.89	0.09
705.212	0.1
705.535	0.09
705.857	0.08
706.179	0.09
706.502	0.08
706.824	0.09
707.146	0.08
707.468	0.09
707.79	0.09
708.112	0.1
708.434	0.09
708.756	0.09
709.078	0.09
709.399	0.09
709.721	0.09
710.043	0.1
710.364	0.09
710.686	0.09
711.007	0.09
711.329	0.1
711.65	0.09
711.972	0.09
712.293	0.1
712.614	0.09
712.935	0.1
713.256	0.09
713.577	0.1
713.898	0.09
714.219	0.09
714.54	0.08
714.861	0.09
715.182	0.08
715.503	0.09
715.823	0.08
716.144	0.08
716.464	0.08
716.785	0.08
717.105	0.08
717.426	0.08
717.746	0.08
718.066	0.08
718.387	0.08
718.707	0.08
719.027	0.09
719.347	0.07
719.667	0.08
719.987	0.08
720.307	0.07
720.627	0.07
720.947	0.08
721.266	0.08
721.586	0.07
721.906	0.08
722.225	0.07
722.545	0.08
722.864	0.07
723.184	0.08
723.503	0.07
723.823	0.08
724.142	0.06
