Data from 12-12-AQDScycling_Absorbance__647__00647.txt Node

Date: Tue Dec 12 13:38:29 EST 2023
User: kyuminlee
Spectrometer: FLMS00943
Trigger mode: 0
Integration Time (sec): 1.000000E-1
Scans to average: 1
Electric dark correction enabled: true
Nonlinearity correction enabled: false
Boxcar width: 0
XAxis mode: Wavelengths
Number of Pixels in Spectrum: 2048
>>>>>Begin Spectral Data<<<<<
179.651	-0
180.037	-0
180.424	-0
180.81	-0.07
181.197	0.21
181.583	-0
181.97	-0.15
182.356	-0
182.743	-1.62
183.129	0.35
183.515	-0
183.901	-0
184.288	0.19
184.674	1.05
185.06	-0
185.446	-0
185.832	-0.98
186.218	-0
186.604	0.65
186.99	-0
187.376	0.79
187.762	0.07
188.148	0.22
188.534	-0.19
188.92	0.02
189.305	0.08
189.691	0.11
190.077	0.16
190.463	0.19
190.848	0.11
191.234	0.13
191.619	0.06
192.005	0.18
192.391	0.07
192.776	0.03
193.161	0.12
193.547	0.06
193.932	0.11
194.318	0.09
194.703	0.09
195.088	0.28
195.473	0.25
195.859	0.1
196.244	0.1
196.629	0.11
197.014	0.06
197.399	0.16
197.784	0.13
198.169	0.15
198.554	0.25
198.939	0.1
199.324	0.09
199.709	0.08
200.094	0.13
200.478	0.18
200.863	0.19
201.248	0.24
201.633	0.09
202.017	0.07
202.402	0.19
202.787	0.15
203.171	0.1
203.556	0.18
203.94	0.13
204.325	0.16
204.709	0.26
205.093	0.11
205.478	0.14
205.862	0
206.246	0.23
206.631	0.15
207.015	0.05
207.399	0.35
207.783	0.2
208.167	0.14
208.551	0.24
208.935	0.09
209.319	0.05
209.703	0.32
210.087	0.4
210.471	0.05
210.855	0.16
211.239	0.23
211.623	0.29
212.007	0.3
212.39	0.36
212.774	0.18
213.158	0.05
213.541	0.16
213.925	0.25
214.309	0.33
214.692	0.3
215.076	0.17
215.459	0.07
215.842	0.14
216.226	0.18
216.609	0.28
216.993	0.15
217.376	0.4
217.759	0.16
218.142	0.49
218.525	0.59
218.909	0.37
219.292	0.32
219.675	0.45
220.058	0.37
220.441	0.6
220.824	0.53
221.207	0.57
221.59	0.47
221.973	0.52
222.355	0.67
222.738	0.77
223.121	0.73
223.504	0.51
223.886	0.7
224.269	0.75
224.652	0.65
225.034	0.72
225.417	0.79
225.799	0.8
226.182	0.87
226.564	0.86
226.947	0.88
227.329	0.81
227.711	1.04
228.094	0.96
228.476	0.96
228.858	0.76
229.24	0.89
229.623	0.89
230.005	0.73
230.387	0.85
230.769	0.76
231.151	1
231.533	1.03
231.915	0.97
232.297	0.94
232.679	0.9
233.061	1.02
233.442	1.07
233.824	1.12
234.206	1.17
234.588	1.1
234.969	1.22
235.351	1
235.733	1.13
236.114	1.19
236.496	1.18
236.877	1.14
237.259	1.03
237.64	1.11
238.022	1.13
238.403	1.01
238.784	1.08
239.165	1.03
239.547	1
239.928	1.07
240.309	1.04
240.69	1.02
241.071	1.18
241.452	1.1
241.834	0.99
242.215	1.06
242.595	1.1
242.976	1.08
243.357	1.12
243.738	1.03
244.119	1.23
244.5	1.06
244.881	1.26
245.261	1.25
245.642	1.12
246.023	1.16
246.403	1.18
246.784	1.23
247.164	1.25
247.545	1.24
247.925	1.21
248.306	1.22
248.686	1.48
249.067	1.28
249.447	1.34
249.827	1.61
250.207	1.49
250.588	1.35
250.968	1.43
251.348	1.4
251.728	1.54
252.108	1.37
252.488	1.55
252.868	1.29
253.248	1.26
253.628	1.37
254.008	1.4
254.388	1.38
254.768	1.37
255.147	1.42
255.527	1.53
255.907	1.39
256.287	1.31
256.666	1.38
257.046	1.42
257.425	1.55
257.805	1.43
258.184	1.43
258.564	1.27
258.943	1.41
259.323	1.58
259.702	1.46
260.081	1.43
260.461	1.45
260.84	1.53
261.219	1.6
261.598	1.5
261.977	1.51
262.356	1.48
262.736	1.54
263.115	1.46
263.494	1.5
263.873	1.5
264.251	1.53
264.63	1.44
265.009	1.55
265.388	1.4
265.767	1.39
266.145	1.42
266.524	1.4
266.903	1.53
267.281	1.42
267.66	1.51
268.039	1.47
268.417	1.44
268.796	1.51
269.174	1.38
269.552	1.4
269.931	1.5
270.309	1.37
270.687	1.63
271.066	1.49
271.444	1.34
271.822	1.51
272.2	1.3
272.578	1.3
272.956	1.38
273.334	1.32
273.712	1.35
274.09	1.37
274.468	1.32
274.846	1.3
275.224	1.44
275.602	1.43
275.98	1.53
276.357	1.37
276.735	1.47
277.113	1.37
277.49	1.35
277.868	1.26
278.246	1.36
278.623	1.35
279.001	1.31
279.378	1.39
279.756	1.43
280.133	1.52
280.51	1.43
280.888	1.48
281.265	1.41
281.642	1.58
282.019	1.62
282.396	1.72
282.773	1.5
283.151	1.6
283.528	1.36
283.905	1.35
284.282	1.56
284.659	1.65
285.035	1.27
285.412	1.38
285.789	1.37
286.166	1.5
286.543	1.5
286.919	1.55
287.296	1.33
287.673	1.65
288.049	1.47
288.426	1.67
288.802	1.5
289.179	1.4
289.555	1.6
289.932	1.49
290.308	1.32
290.684	1.37
291.061	1.34
291.437	1.65
291.813	1.27
292.189	1.36
292.565	1.34
292.942	1.31
293.318	1.51
293.694	1.48
294.07	1.52
294.446	1.34
294.822	1.46
295.197	1.46
295.573	1.51
295.949	1.47
296.325	1.48
296.701	1.45
297.076	1.56
297.452	1.47
297.828	1.4
298.203	1.55
298.579	1.48
298.954	1.48
299.33	1.37
299.705	1.42
300.081	1.37
300.456	1.48
300.831	1.35
301.206	1.44
301.582	1.53
301.957	1.49
302.332	1.46
302.707	1.35
303.082	1.34
303.457	1.45
303.832	1.36
304.207	1.29
304.582	1.34
304.957	1.38
305.332	1.5
305.707	1.36
306.082	1.45
306.456	1.59
306.831	1.28
307.206	1.34
307.58	1.4
307.955	1.31
308.33	1.27
308.704	1.36
309.079	1.27
309.453	1.47
309.828	1.34
310.202	1.27
310.576	1.22
310.951	1.35
311.325	1.33
311.699	1.29
312.073	1.26
312.447	1.27
312.821	1.28
313.196	1.33
313.57	1.25
313.944	1.19
314.317	1.2
314.691	1.31
315.065	1.31
315.439	1.41
315.813	1.28
316.187	1.37
316.56	1.24
316.934	1.29
317.308	1.29
317.681	1.29
318.055	1.2
318.428	1.3
318.802	1.38
319.175	1.34
319.549	1.3
319.922	1.2
320.295	1.29
320.669	1.35
321.042	1.32
321.415	1.4
321.788	1.27
322.162	1.23
322.535	1.29
322.908	1.46
323.281	1.28
323.654	1.42
324.027	1.29
324.4	1.4
324.773	1.32
325.145	1.44
325.518	1.24
325.891	1.25
326.264	1.31
326.636	1.34
327.009	1.31
327.382	1.29
327.754	1.33
328.127	1.27
328.499	1.32
328.872	1.33
329.244	1.32
329.616	1.37
329.989	1.35
330.361	1.36
330.733	1.28
331.106	1.34
331.478	1.36
331.85	1.29
332.222	1.35
332.594	1.39
332.966	1.45
333.338	1.42
333.71	1.51
334.082	1.49
334.454	1.31
334.826	1.42
335.197	1.38
335.569	1.36
335.941	1.23
336.312	1.39
336.684	1.4
337.056	1.3
337.427	1.4
337.799	1.45
338.17	1.38
338.542	1.38
338.913	1.39
339.284	1.38
339.656	1.42
340.027	1.41
340.398	1.44
340.769	1.4
341.141	1.42
341.512	1.39
341.883	1.55
342.254	1.37
342.625	1.45
342.996	1.52
343.367	1.33
343.738	1.45
344.108	1.34
344.479	1.52
344.85	1.32
345.221	1.44
345.591	1.32
345.962	1.47
346.333	1.3
346.703	1.25
347.074	1.3
347.444	1.31
347.815	1.29
348.185	1.4
348.556	1.31
348.926	1.29
349.296	1.29
349.666	1.27
350.037	1.28
350.407	1.25
350.777	1.51
351.147	1.33
351.517	1.29
351.887	1.25
352.257	1.41
352.627	1.28
352.997	1.22
353.367	1.36
353.737	1.37
354.106	1.41
354.476	1.29
354.846	1.4
355.216	1.41
355.585	1.39
355.955	1.36
356.324	1.49
356.694	1.51
357.063	1.42
357.433	1.32
357.802	1.39
358.171	1.45
358.541	1.4
358.91	1.41
359.279	1.43
359.648	1.4
360.017	1.4
360.387	1.4
360.756	1.43
361.125	1.4
361.494	1.47
361.863	1.35
362.231	1.43
362.6	1.36
362.969	1.49
363.338	1.36
363.707	1.54
364.075	1.51
364.444	1.38
364.813	1.47
365.181	1.39
365.55	1.45
365.918	1.58
366.287	1.39
366.655	1.52
367.024	1.4
367.392	1.39
367.76	1.51
368.128	1.45
368.497	1.43
368.865	1.42
369.233	1.44
369.601	1.43
369.969	1.37
370.337	1.43
370.705	1.58
371.073	1.46
371.441	1.43
371.809	1.42
372.177	1.38
372.544	1.44
372.912	1.59
373.28	1.41
373.647	1.71
374.015	1.55
374.383	1.9
374.75	1.57
375.118	1.53
375.485	1.5
375.853	1.59
376.22	1.42
376.587	1.45
376.955	1.78
377.322	1.56
377.689	1.44
378.056	1.52
378.423	1.39
378.79	1.61
379.157	1.41
379.524	1.46
379.891	1.44
380.258	1.63
380.625	1.36
380.992	1.5
381.359	1.57
381.726	1.63
382.092	1.56
382.459	1.43
382.826	1.44
383.192	1.48
383.559	1.57
383.925	1.45
384.292	1.55
384.658	1.68
385.025	1.57
385.391	1.58
385.757	1.71
386.123	1.63
386.49	1.63
386.856	1.52
387.222	1.59
387.588	1.53
387.954	1.6
388.32	1.73
388.686	1.56
389.052	1.5
389.418	1.54
389.784	1.55
390.15	1.62
390.515	1.46
390.881	1.65
391.247	1.59
391.613	1.5
391.978	1.46
392.344	1.63
392.709	1.8
393.075	1.45
393.44	1.46
393.806	1.67
394.171	1.47
394.536	1.6
394.902	1.5
395.267	1.52
395.632	1.49
395.997	1.48
396.362	1.51
396.727	1.6
397.092	1.48
397.457	1.45
397.822	1.52
398.187	1.54
398.552	1.61
398.917	1.66
399.282	1.58
399.646	1.52
400.011	1.54
400.376	1.44
400.74	1.53
401.105	1.54
401.47	1.49
401.834	1.69
402.199	1.55
402.563	1.54
402.927	1.56
403.292	1.56
403.656	1.44
404.02	1.54
404.384	1.56
404.749	1.48
405.113	1.59
405.477	1.61
405.841	1.58
406.205	1.46
406.569	1.46
406.933	1.53
407.296	1.46
407.66	1.46
408.024	1.49
408.388	1.57
408.752	1.43
409.115	1.64
409.479	1.53
409.842	1.55
410.206	1.54
410.569	1.5
410.933	1.41
411.296	1.34
411.66	1.48
412.023	1.41
412.386	1.41
412.749	1.34
413.113	1.4
413.476	1.33
413.839	1.45
414.202	1.4
414.565	1.42
414.928	1.38
415.291	1.35
415.654	1.46
416.017	1.45
416.38	1.32
416.742	1.38
417.105	1.43
417.468	1.41
417.83	1.42
418.193	1.47
418.556	1.34
418.918	1.33
419.281	1.39
419.643	1.37
420.005	1.46
420.368	1.27
420.73	1.3
421.092	1.39
421.455	1.43
421.817	1.3
422.179	1.29
422.541	1.3
422.903	1.44
423.265	1.38
423.627	1.33
423.989	1.34
424.351	1.35
424.713	1.34
425.075	1.33
425.436	1.31
425.798	1.34
426.16	1.34
426.521	1.28
426.883	1.41
427.245	1.47
427.606	1.29
427.967	1.24
428.329	1.34
428.69	1.39
429.052	1.26
429.413	1.3
429.774	1.32
430.135	1.3
430.497	1.37
430.858	1.3
431.219	1.33
431.58	1.31
431.941	1.3
432.302	1.28
432.663	1.28
433.024	1.35
433.384	1.35
433.745	1.3
434.106	1.31
434.467	1.26
434.827	1.33
435.188	1.24
435.548	1.27
435.909	1.27
436.269	1.3
436.63	1.19
436.99	1.28
437.351	1.18
437.711	1.3
438.071	1.21
438.431	1.19
438.792	1.18
439.152	1.23
439.512	1.17
439.872	1.23
440.232	1.22
440.592	1.24
440.952	1.18
441.312	1.16
441.671	1.17
442.031	1.2
442.391	1.15
442.751	1.19
443.11	1.17
443.47	1.12
443.83	1.12
444.189	1.14
444.549	1.13
444.908	1.12
445.267	1.11
445.627	1.1
445.986	1.11
446.345	1.08
446.705	1.1
447.064	1.08
447.423	1.07
447.782	1.06
448.141	1.06
448.5	1.05
448.859	1.06
449.218	1.02
449.577	1.05
449.936	1.02
450.295	1.02
450.653	0.99
451.012	1.03
451.371	1.01
451.729	1
452.088	1
452.447	1.02
452.805	0.99
453.163	0.99
453.522	0.97
453.88	0.93
454.239	0.96
454.597	0.93
454.955	0.93
455.313	0.92
455.671	0.9
456.029	0.91
456.388	0.87
456.746	0.89
457.104	0.87
457.461	0.86
457.819	0.86
458.177	0.84
458.535	0.84
458.893	0.83
459.25	0.83
459.608	0.82
459.966	0.8
460.323	0.78
460.681	0.77
461.038	0.78
461.396	0.76
461.753	0.75
462.111	0.74
462.468	0.73
462.825	0.72
463.182	0.71
463.54	0.7
463.897	0.71
464.254	0.69
464.611	0.7
464.968	0.68
465.325	0.67
465.682	0.67
466.039	0.66
466.395	0.64
466.752	0.64
467.109	0.63
467.466	0.62
467.822	0.61
468.179	0.6
468.535	0.6
468.892	0.59
469.248	0.57
469.605	0.56
469.961	0.56
470.318	0.56
470.674	0.55
471.03	0.54
471.386	0.54
471.743	0.52
472.099	0.52
472.455	0.52
472.811	0.51
473.167	0.5
473.523	0.48
473.879	0.49
474.235	0.48
474.59	0.46
474.946	0.47
475.302	0.46
475.657	0.44
476.013	0.44
476.369	0.43
476.724	0.43
477.08	0.42
477.435	0.41
477.791	0.41
478.146	0.4
478.501	0.41
478.857	0.4
479.212	0.39
479.567	0.38
479.922	0.37
480.277	0.36
480.632	0.36
480.987	0.37
481.342	0.35
481.697	0.35
482.052	0.34
482.407	0.34
482.762	0.33
483.116	0.33
483.471	0.33
483.826	0.32
484.18	0.32
484.535	0.31
484.89	0.31
485.244	0.3
485.598	0.3
485.953	0.3
486.307	0.29
486.661	0.29
487.016	0.28
487.37	0.29
487.724	0.28
488.078	0.27
488.432	0.27
488.786	0.27
489.14	0.26
489.494	0.26
489.848	0.26
490.202	0.25
490.556	0.26
490.91	0.25
491.263	0.25
491.617	0.25
491.971	0.25
492.324	0.24
492.678	0.24
493.031	0.24
493.385	0.24
493.738	0.24
494.091	0.23
494.445	0.23
494.798	0.23
495.151	0.22
495.504	0.23
495.857	0.22
496.21	0.22
496.564	0.22
496.916	0.22
497.269	0.21
497.622	0.21
497.975	0.21
498.328	0.2
498.681	0.2
499.033	0.19
499.386	0.2
499.739	0.2
500.091	0.2
500.444	0.19
500.796	0.2
501.149	0.19
501.501	0.19
501.854	0.19
502.206	0.19
502.558	0.19
502.91	0.19
503.263	0.19
503.615	0.18
503.967	0.19
504.319	0.19
504.671	0.18
505.023	0.18
505.375	0.18
505.726	0.18
506.078	0.18
506.43	0.18
506.782	0.18
507.133	0.18
507.485	0.18
507.837	0.18
508.188	0.18
508.54	0.18
508.891	0.19
509.243	0.17
509.594	0.18
509.945	0.18
510.296	0.17
510.648	0.18
510.999	0.17
511.35	0.17
511.701	0.17
512.052	0.18
512.403	0.18
512.754	0.17
513.105	0.18
513.456	0.16
513.807	0.16
514.157	0.17
514.508	0.17
514.859	0.17
515.209	0.16
515.56	0.17
515.91	0.16
516.261	0.17
516.611	0.17
516.962	0.17
517.312	0.17
517.662	0.17
518.013	0.17
518.363	0.17
518.713	0.17
519.063	0.17
519.413	0.17
519.763	0.17
520.113	0.17
520.463	0.17
520.813	0.18
521.163	0.18
521.512	0.17
521.862	0.17
522.212	0.17
522.562	0.17
522.911	0.17
523.261	0.17
523.61	0.17
523.96	0.17
524.309	0.18
524.658	0.18
525.008	0.17
525.357	0.17
525.706	0.18
526.056	0.17
526.405	0.17
526.754	0.16
527.103	0.17
527.452	0.17
527.801	0.17
528.15	0.18
528.499	0.17
528.847	0.17
529.196	0.17
529.545	0.18
529.893	0.18
530.242	0.18
530.591	0.18
530.939	0.19
531.288	0.19
531.636	0.18
531.985	0.18
532.333	0.18
532.681	0.18
533.029	0.19
533.378	0.19
533.726	0.19
534.074	0.18
534.422	0.18
534.77	0.18
535.118	0.18
535.466	0.18
535.814	0.17
536.162	0.18
536.509	0.19
536.857	0.18
537.205	0.18
537.552	0.18
537.9	0.19
538.248	0.18
538.595	0.18
538.943	0.19
539.29	0.19
539.637	0.18
539.985	0.18
540.332	0.18
540.679	0.18
541.026	0.17
541.373	0.19
541.721	0.17
542.068	0.18
542.415	0.18
542.762	0.18
543.108	0.17
543.455	0.17
543.802	0.17
544.149	0.17
544.496	0.18
544.842	0.17
545.189	0.17
545.535	0.17
545.882	0.17
546.228	0.16
546.575	0.16
546.921	0.17
547.267	0.17
547.614	0.17
547.96	0.18
548.306	0.18
548.652	0.17
548.998	0.17
549.344	0.17
549.69	0.17
550.036	0.17
550.382	0.18
550.728	0.17
551.074	0.18
551.42	0.18
551.765	0.18
552.111	0.18
552.457	0.19
552.802	0.18
553.148	0.18
553.493	0.19
553.839	0.18
554.184	0.18
554.529	0.17
554.875	0.18
555.22	0.18
555.565	0.18
555.91	0.17
556.255	0.19
556.6	0.19
556.945	0.18
557.29	0.18
557.635	0.18
557.98	0.19
558.325	0.18
558.67	0.18
559.014	0.18
559.359	0.18
559.704	0.18
560.048	0.17
560.393	0.18
560.737	0.17
561.082	0.18
561.426	0.17
561.77	0.18
562.115	0.17
562.459	0.18
562.803	0.18
563.147	0.19
563.491	0.18
563.835	0.18
564.179	0.19
564.523	0.19
564.867	0.18
565.211	0.18
565.555	0.19
565.899	0.19
566.242	0.18
566.586	0.18
566.93	0.18
567.273	0.18
567.617	0.19
567.96	0.19
568.304	0.18
568.647	0.18
568.99	0.19
569.334	0.18
569.677	0.19
570.02	0.19
570.363	0.19
570.706	0.19
571.049	0.18
571.392	0.19
571.735	0.18
572.078	0.19
572.421	0.19
572.764	0.2
573.106	0.19
573.449	0.19
573.792	0.18
574.134	0.18
574.477	0.18
574.819	0.18
575.162	0.18
575.504	0.18
575.847	0.19
576.189	0.18
576.531	0.18
576.873	0.18
577.215	0.19
577.558	0.19
577.9	0.18
578.242	0.18
578.584	0.19
578.926	0.18
579.267	0.18
579.609	0.19
579.951	0.18
580.293	0.19
580.634	0.18
580.976	0.19
581.318	0.18
581.659	0.18
582.001	0.18
582.342	0.18
582.683	0.18
583.025	0.17
583.366	0.18
583.707	0.18
584.049	0.18
584.39	0.18
584.731	0.18
585.072	0.17
585.413	0.18
585.754	0.18
586.095	0.18
586.435	0.18
586.776	0.18
587.117	0.17
587.458	0.18
587.798	0.18
588.139	0.18
588.48	0.17
588.82	0.18
589.161	0.18
589.501	0.17
589.841	0.17
590.182	0.18
590.522	0.18
590.862	0.18
591.202	0.18
591.542	0.18
591.882	0.18
592.222	0.17
592.562	0.17
592.902	0.18
593.242	0.18
593.582	0.18
593.922	0.18
594.261	0.18
594.601	0.17
594.941	0.18
595.28	0.18
595.62	0.18
595.959	0.18
596.299	0.18
596.638	0.18
596.977	0.17
597.317	0.18
597.656	0.18
597.995	0.18
598.334	0.18
598.673	0.18
599.012	0.18
599.351	0.19
599.69	0.18
600.029	0.19
600.368	0.19
600.707	0.19
601.046	0.18
601.384	0.18
601.723	0.18
602.061	0.17
602.4	0.18
602.738	0.18
603.077	0.18
603.415	0.18
603.754	0.18
604.092	0.18
604.43	0.17
604.768	0.18
605.107	0.18
605.445	0.18
605.783	0.18
606.121	0.17
606.459	0.18
606.796	0.18
607.134	0.17
607.472	0.18
607.81	0.18
608.148	0.18
608.485	0.17
608.823	0.18
609.16	0.17
609.498	0.18
609.835	0.17
610.173	0.17
610.51	0.17
610.847	0.18
611.185	0.17
611.522	0.18
611.859	0.17
612.196	0.18
612.533	0.18
612.87	0.18
613.207	0.18
613.544	0.18
613.881	0.19
614.217	0.18
614.554	0.18
614.891	0.18
615.228	0.18
615.564	0.18
615.901	0.18
616.237	0.18
616.574	0.18
616.91	0.19
617.246	0.18
617.583	0.18
617.919	0.18
618.255	0.18
618.591	0.18
618.927	0.18
619.263	0.18
619.599	0.18
619.935	0.18
620.271	0.17
620.607	0.17
620.943	0.18
621.279	0.18
621.614	0.18
621.95	0.18
622.286	0.17
622.621	0.17
622.957	0.18
623.292	0.17
623.627	0.18
623.963	0.17
624.298	0.17
624.633	0.17
624.968	0.17
625.304	0.17
625.639	0.17
625.974	0.17
626.309	0.17
626.644	0.17
626.979	0.17
627.313	0.17
627.648	0.17
627.983	0.17
628.318	0.17
628.652	0.16
628.987	0.16
629.321	0.17
629.656	0.16
629.99	0.16
630.325	0.16
630.659	0.17
630.993	0.16
631.327	0.15
631.662	0.15
631.996	0.15
632.33	0.15
632.664	0.16
632.998	0.15
633.332	0.16
633.666	0.16
633.999	0.16
634.333	0.15
634.667	0.15
635.001	0.15
635.334	0.15
635.668	0.15
636.001	0.15
636.335	0.15
636.668	0.15
637.001	0.15
637.335	0.15
637.668	0.15
638.001	0.15
638.334	0.15
638.668	0.15
639.001	0.15
639.334	0.14
639.667	0.15
639.999	0.15
640.332	0.16
640.665	0.15
640.998	0.15
641.331	0.15
641.663	0.15
641.996	0.15
642.328	0.15
642.661	0.15
642.993	0.15
643.326	0.15
643.658	0.14
643.99	0.14
644.323	0.15
644.655	0.15
644.987	0.14
645.319	0.15
645.651	0.15
645.983	0.14
646.315	0.14
646.647	0.15
646.979	0.16
647.31	0.16
647.642	0.15
647.974	0.15
648.305	0.15
648.637	0.15
648.968	0.15
649.3	0.15
649.631	0.15
649.963	0.15
650.294	0.15
650.625	0.14
650.957	0.15
651.288	0.15
651.619	0.15
651.95	0.15
652.281	0.15
652.612	0.15
652.943	0.15
653.274	0.15
653.604	0.15
653.935	0.15
654.266	0.15
654.596	0.15
654.927	0.14
655.258	0.15
655.588	0.15
655.918	0.15
656.249	0.13
656.579	0.14
656.909	0.14
657.24	0.14
657.57	0.15
657.9	0.14
658.23	0.14
658.56	0.15
658.89	0.14
659.22	0.14
659.55	0.15
659.88	0.14
660.209	0.14
660.539	0.15
660.869	0.15
661.198	0.15
661.528	0.14
661.857	0.14
662.187	0.14
662.516	0.14
662.846	0.13
663.175	0.14
663.504	0.14
663.833	0.14
664.163	0.14
664.492	0.14
664.821	0.14
665.15	0.14
665.479	0.14
665.807	0.14
666.136	0.14
666.465	0.14
666.794	0.15
667.122	0.14
667.451	0.14
667.78	0.14
668.108	0.14
668.437	0.14
668.765	0.14
669.093	0.14
669.422	0.14
669.75	0.15
670.078	0.14
670.406	0.14
670.734	0.14
671.062	0.14
671.39	0.14
671.718	0.14
672.046	0.14
672.374	0.13
672.702	0.13
673.029	0.13
673.357	0.13
673.685	0.14
674.012	0.13
674.34	0.13
674.667	0.14
674.995	0.14
675.322	0.14
675.649	0.12
675.977	0.13
676.304	0.13
676.631	0.13
676.958	0.13
677.285	0.13
677.612	0.13
677.939	0.13
678.266	0.14
678.593	0.13
678.92	0.12
679.246	0.12
679.573	0.13
679.9	0.12
680.226	0.13
680.553	0.13
680.879	0.13
681.206	0.13
681.532	0.12
681.858	0.13
682.184	0.13
682.511	0.13
682.837	0.12
683.163	0.13
683.489	0.13
683.815	0.13
684.141	0.12
684.467	0.13
684.793	0.12
685.118	0.13
685.444	0.12
685.77	0.12
686.095	0.12
686.421	0.12
686.746	0.12
687.072	0.12
687.397	0.12
687.723	0.12
688.048	0.13
688.373	0.11
688.698	0.12
689.023	0.12
689.349	0.12
689.674	0.12
689.999	0.12
690.323	0.11
690.648	0.11
690.973	0.11
691.298	0.12
691.623	0.12
691.947	0.12
692.272	0.11
692.596	0.12
692.921	0.12
693.245	0.12
693.57	0.12
693.894	0.12
694.218	0.13
694.543	0.12
694.867	0.12
695.191	0.11
695.515	0.13
695.839	0.11
696.163	0.11
696.487	0.12
696.811	0.11
697.135	0.12
697.458	0.12
697.782	0.12
698.106	0.12
698.429	0.12
698.753	0.12
699.076	0.11
699.4	0.12
699.723	0.12
700.046	0.1
700.37	0.12
700.693	0.11
701.016	0.11
701.339	0.11
701.662	0.12
701.985	0.11
702.308	0.11
702.631	0.12
702.954	0.12
703.277	0.11
703.599	0.12
703.922	0.11
704.245	0.11
704.567	0.11
704.89	0.11
705.212	0.11
705.535	0.1
705.857	0.1
706.179	0.1
706.502	0.1
706.824	0.1
707.146	0.1
707.468	0.1
707.79	0.11
708.112	0.11
708.434	0.11
708.756	0.11
709.078	0.11
709.399	0.11
709.721	0.1
710.043	0.11
710.364	0.1
710.686	0.11
711.007	0.11
711.329	0.11
711.65	0.1
711.972	0.1
712.293	0.11
712.614	0.11
712.935	0.11
713.256	0.1
713.577	0.11
713.898	0.11
714.219	0.1
714.54	0.11
714.861	0.1
715.182	0.1
715.503	0.1
715.823	0.1
716.144	0.09
716.464	0.09
716.785	0.09
717.105	0.09
717.426	0.1
717.746	0.09
718.066	0.09
718.387	0.09
718.707	0.09
719.027	0.09
719.347	0.09
719.667	0.09
719.987	0.08
720.307	0.09
720.627	0.08
720.947	0.09
721.266	0.09
721.586	0.09
721.906	0.09
722.225	0.08
722.545	0.08
722.864	0.09
723.184	0.1
723.503	0.09
723.823	0.1
724.142	0.09
