Data from 12-12-AQDScycling_Absorbance__814__00814.txt Node

Date: Tue Dec 12 14:20:14 EST 2023
User: kyuminlee
Spectrometer: FLMS00943
Trigger mode: 0
Integration Time (sec): 1.000000E-1
Scans to average: 1
Electric dark correction enabled: true
Nonlinearity correction enabled: false
Boxcar width: 0
XAxis mode: Wavelengths
Number of Pixels in Spectrum: 2048
>>>>>Begin Spectral Data<<<<<
179.651	0.12
180.037	0.12
180.424	0.12
180.81	-0
181.197	0.13
181.583	-0.19
181.97	-0.31
182.356	-0
182.743	-1.22
183.129	0.15
183.515	0.81
183.901	-2.54
184.288	0.37
184.674	-0
185.06	-1.04
185.446	-0.38
185.832	-0
186.218	0.31
186.604	0.02
186.99	-0.45
187.376	0.09
187.762	-0.31
188.148	0.15
188.534	-0.28
188.92	0.04
189.305	0.09
189.691	0.08
190.077	0.18
190.463	0.13
190.848	-0.02
191.234	0
191.619	0.03
192.005	0.08
192.391	0.12
192.776	0.02
193.161	0.09
193.547	0.14
193.932	0.12
194.318	0.1
194.703	0.09
195.088	0.07
195.473	0.21
195.859	0.17
196.244	0.16
196.629	0.14
197.014	0.12
197.399	0.2
197.784	0.15
198.169	0.2
198.554	0.2
198.939	0.05
199.324	0.15
199.709	0.01
200.094	0.03
200.478	0.09
200.863	0.1
201.248	0.13
201.633	0.21
202.017	0.13
202.402	0.12
202.787	-0.02
203.171	0.21
203.556	0.17
203.94	0.13
204.325	0.24
204.709	0.21
205.093	0.01
205.478	0.07
205.862	0.07
206.246	0.15
206.631	0.24
207.015	0.11
207.399	0.19
207.783	0.13
208.167	0.16
208.551	0.15
208.935	0.27
209.319	0.05
209.703	0.16
210.087	0.19
210.471	0.11
210.855	0.11
211.239	0.12
211.623	0.24
212.007	0.13
212.39	0.15
212.774	0.06
213.158	0.07
213.541	0.21
213.925	0.36
214.309	0.25
214.692	0.24
215.076	0.28
215.459	0.13
215.842	0.04
216.226	0.17
216.609	0.25
216.993	0.14
217.376	0.34
217.759	0.18
218.142	0.29
218.525	0.32
218.909	0.27
219.292	0.24
219.675	0.51
220.058	0.42
220.441	0.6
220.824	0.43
221.207	0.49
221.59	0.47
221.973	0.44
222.355	0.49
222.738	0.64
223.121	0.56
223.504	0.5
223.886	0.66
224.269	0.63
224.652	0.63
225.034	0.84
225.417	0.7
225.799	0.79
226.182	0.83
226.564	0.7
226.947	0.81
227.329	0.84
227.711	0.77
228.094	0.88
228.476	0.79
228.858	0.77
229.24	0.86
229.623	0.92
230.005	0.85
230.387	0.78
230.769	0.78
231.151	0.89
231.533	1
231.915	0.85
232.297	1.12
232.679	0.97
233.061	1.06
233.442	1.06
233.824	0.93
234.206	1.08
234.588	1
234.969	0.97
235.351	1
235.733	0.91
236.114	1.07
236.496	1.01
236.877	1.05
237.259	1.12
237.64	0.96
238.022	1.05
238.403	1
238.784	0.97
239.165	0.98
239.547	1.21
239.928	1.06
240.309	0.91
240.69	1.03
241.071	1.18
241.452	1.07
241.834	1.1
242.215	1.1
242.595	0.99
242.976	1.17
243.357	1.09
243.738	1.02
244.119	1.33
244.5	1.05
244.881	1.13
245.261	1.16
245.642	1.1
246.023	1.28
246.403	1.12
246.784	1.18
247.164	1.37
247.545	1.32
247.925	1.29
248.306	1.13
248.686	1.23
249.067	1.25
249.447	1.27
249.827	1.39
250.207	1.48
250.588	1.21
250.968	1.39
251.348	1.25
251.728	1.27
252.108	1.32
252.488	1.42
252.868	1.32
253.248	1.29
253.628	1.35
254.008	1.65
254.388	1.34
254.768	1.34
255.147	1.46
255.527	1.41
255.907	1.27
256.287	1.32
256.666	1.27
257.046	1.38
257.425	1.42
257.805	1.22
258.184	1.32
258.564	1.33
258.943	1.35
259.323	1.48
259.702	1.61
260.081	1.53
260.461	1.57
260.84	1.56
261.219	1.64
261.598	1.43
261.977	1.48
262.356	1.47
262.736	1.53
263.115	1.41
263.494	1.35
263.873	1.38
264.251	1.41
264.63	1.44
265.009	1.37
265.388	1.41
265.767	1.31
266.145	1.4
266.524	1.44
266.903	1.46
267.281	1.5
267.66	1.46
268.039	1.52
268.417	1.24
268.796	1.37
269.174	1.32
269.552	1.32
269.931	1.53
270.309	1.35
270.687	1.45
271.066	1.67
271.444	1.32
271.822	1.51
272.2	1.45
272.578	1.33
272.956	1.42
273.334	1.37
273.712	1.37
274.09	1.36
274.468	1.34
274.846	1.24
275.224	1.36
275.602	1.42
275.98	1.54
276.357	1.29
276.735	1.4
277.113	1.34
277.49	1.2
277.868	1.3
278.246	1.32
278.623	1.27
279.001	1.29
279.378	1.32
279.756	1.34
280.133	1.44
280.51	1.36
280.888	1.4
281.265	1.47
281.642	1.46
282.019	1.57
282.396	1.47
282.773	1.38
283.151	1.37
283.528	1.61
283.905	1.41
284.282	1.47
284.659	1.39
285.035	1.3
285.412	1.27
285.789	1.42
286.166	1.42
286.543	1.45
286.919	1.33
287.296	1.39
287.673	1.56
288.049	1.43
288.426	1.53
288.802	1.38
289.179	1.52
289.555	1.59
289.932	1.38
290.308	1.32
290.684	1.29
291.061	1.41
291.437	1.38
291.813	1.36
292.189	1.25
292.565	1.3
292.942	1.35
293.318	1.39
293.694	1.36
294.07	1.28
294.446	1.49
294.822	1.44
295.197	1.45
295.573	1.33
295.949	1.5
296.325	1.44
296.701	1.36
297.076	1.44
297.452	1.36
297.828	1.34
298.203	1.43
298.579	1.37
298.954	1.38
299.33	1.35
299.705	1.28
300.081	1.44
300.456	1.33
300.831	1.18
301.206	1.26
301.582	1.24
301.957	1.24
302.332	1.25
302.707	1.13
303.082	1.13
303.457	1.13
303.832	1.1
304.207	1.07
304.582	1.03
304.957	1.07
305.332	1.03
305.707	1.02
306.082	1.01
306.456	1.06
306.831	1.01
307.206	0.98
307.58	0.96
307.955	0.89
308.33	0.94
308.704	0.86
309.079	0.87
309.453	0.86
309.828	0.82
310.202	0.81
310.576	0.81
310.951	0.8
311.325	0.78
311.699	0.8
312.073	0.73
312.447	0.76
312.821	0.74
313.196	0.74
313.57	0.7
313.944	0.69
314.317	0.68
314.691	0.69
315.065	0.7
315.439	0.66
315.813	0.65
316.187	0.67
316.56	0.65
316.934	0.67
317.308	0.62
317.681	0.62
318.055	0.62
318.428	0.59
318.802	0.62
319.175	0.62
319.549	0.61
319.922	0.62
320.295	0.6
320.669	0.62
321.042	0.61
321.415	0.6
321.788	0.58
322.162	0.55
322.535	0.58
322.908	0.58
323.281	0.56
323.654	0.58
324.027	0.54
324.4	0.58
324.773	0.57
325.145	0.58
325.518	0.55
325.891	0.57
326.264	0.56
326.636	0.55
327.009	0.58
327.382	0.57
327.754	0.59
328.127	0.56
328.499	0.57
328.872	0.59
329.244	0.58
329.616	0.57
329.989	0.6
330.361	0.61
330.733	0.59
331.106	0.6
331.478	0.6
331.85	0.61
332.222	0.61
332.594	0.66
332.966	0.65
333.338	0.67
333.71	0.67
334.082	0.67
334.454	0.67
334.826	0.72
335.197	0.7
335.569	0.72
335.941	0.69
336.312	0.72
336.684	0.73
337.056	0.77
337.427	0.79
337.799	0.77
338.17	0.81
338.542	0.77
338.913	0.81
339.284	0.8
339.656	0.8
340.027	0.83
340.398	0.85
340.769	0.83
341.141	0.88
341.512	0.88
341.883	0.9
342.254	0.92
342.625	0.92
342.996	0.92
343.367	0.9
343.738	0.95
344.108	0.91
344.479	1
344.85	0.92
345.221	1.01
345.591	1
345.962	0.98
346.333	1
346.703	0.97
347.074	1.02
347.444	1.02
347.815	1.05
348.185	1.05
348.556	1.06
348.926	1.09
349.296	1.07
349.666	1.1
350.037	1.08
350.407	1.09
350.777	1.13
351.147	1.18
351.517	1.17
351.887	1.15
352.257	1.21
352.627	1.18
352.997	1.19
353.367	1.28
353.737	1.37
354.106	1.3
354.476	1.21
354.846	1.36
355.216	1.35
355.585	1.43
355.955	1.32
356.324	1.41
356.694	1.39
357.063	1.4
357.433	1.4
357.802	1.43
358.171	1.51
358.541	1.41
358.91	1.43
359.279	1.55
359.648	1.37
360.017	1.54
360.387	1.53
360.756	1.35
361.125	1.55
361.494	1.58
361.863	1.44
362.231	1.49
362.6	1.52
362.969	1.37
363.338	1.47
363.707	1.59
364.075	1.67
364.444	1.52
364.813	1.46
365.181	1.46
365.55	1.55
365.918	1.59
366.287	1.56
366.655	1.54
367.024	1.61
367.392	1.56
367.76	1.52
368.128	1.62
368.497	1.42
368.865	1.48
369.233	1.5
369.601	1.52
369.969	1.54
370.337	1.42
370.705	1.66
371.073	1.46
371.441	1.52
371.809	1.42
372.177	1.39
372.544	1.49
372.912	1.53
373.28	1.55
373.647	1.57
374.015	1.67
374.383	1.83
374.75	1.81
375.118	1.51
375.485	1.57
375.853	1.54
376.22	1.54
376.587	1.39
376.955	1.61
377.322	1.63
377.689	1.56
378.056	1.46
378.423	1.45
378.79	1.63
379.157	1.47
379.524	1.52
379.891	1.45
380.258	1.63
380.625	1.44
380.992	1.46
381.359	1.5
381.726	1.8
382.092	1.63
382.459	1.54
382.826	1.52
383.192	1.64
383.559	1.58
383.925	1.55
384.292	1.49
384.658	1.61
385.025	1.58
385.391	1.56
385.757	1.52
386.123	1.5
386.49	1.51
386.856	1.48
387.222	1.56
387.588	1.57
387.954	1.95
388.32	1.69
388.686	1.63
389.052	1.59
389.418	1.59
389.784	1.49
390.15	1.7
390.515	1.37
390.881	1.58
391.247	1.44
391.613	1.58
391.978	1.41
392.344	1.53
392.709	1.67
393.075	1.54
393.44	1.55
393.806	1.43
394.171	1.47
394.536	1.42
394.902	1.44
395.267	1.47
395.632	1.48
395.997	1.48
396.362	1.48
396.727	1.57
397.092	1.54
397.457	1.49
397.822	1.5
398.187	1.44
398.552	1.47
398.917	1.57
399.282	1.48
399.646	1.55
400.011	1.6
400.376	1.43
400.74	1.53
401.105	1.46
401.47	1.64
401.834	1.55
402.199	1.41
402.563	1.43
402.927	1.44
403.292	1.65
403.656	1.56
404.02	1.49
404.384	1.67
404.749	1.59
405.113	1.7
405.477	1.61
405.841	1.54
406.205	1.52
406.569	1.5
406.933	1.45
407.296	1.55
407.66	1.62
408.024	1.48
408.388	1.54
408.752	1.57
409.115	1.68
409.479	1.53
409.842	1.58
410.206	1.44
410.569	1.46
410.933	1.47
411.296	1.45
411.66	1.56
412.023	1.45
412.386	1.66
412.749	1.35
413.113	1.73
413.476	1.55
413.839	1.51
414.202	1.48
414.565	1.32
414.928	1.52
415.291	1.36
415.654	1.36
416.017	1.56
416.38	1.51
416.742	1.41
417.105	1.37
417.468	1.41
417.83	1.41
418.193	1.53
418.556	1.5
418.918	1.36
419.281	1.55
419.643	1.61
420.005	1.48
420.368	1.55
420.73	1.45
421.092	1.43
421.455	1.7
421.817	1.38
422.179	1.52
422.541	1.45
422.903	1.55
423.265	1.57
423.627	1.47
423.989	1.52
424.351	1.4
424.713	1.52
425.075	1.68
425.436	1.48
425.798	1.48
426.16	1.53
426.521	1.43
426.883	1.52
427.245	1.47
427.606	1.46
427.967	1.44
428.329	1.5
428.69	1.57
429.052	1.43
429.413	1.62
429.774	1.67
430.135	1.56
430.497	1.59
430.858	1.51
431.219	1.52
431.58	1.46
431.941	1.55
432.302	1.43
432.663	1.51
433.024	1.65
433.384	1.63
433.745	1.44
434.106	1.64
434.467	1.5
434.827	1.43
435.188	1.45
435.548	1.68
435.909	1.58
436.269	1.48
436.63	1.49
436.99	1.45
437.351	1.42
437.711	1.54
438.071	1.41
438.431	1.44
438.792	1.46
439.152	1.49
439.512	1.47
439.872	1.47
440.232	1.58
440.592	1.52
440.952	1.62
441.312	1.52
441.671	1.55
442.031	1.56
442.391	1.46
442.751	1.43
443.11	1.47
443.47	1.48
443.83	1.4
444.189	1.42
444.549	1.44
444.908	1.39
445.267	1.39
445.627	1.43
445.986	1.41
446.345	1.34
446.705	1.44
447.064	1.39
447.423	1.38
447.782	1.4
448.141	1.45
448.5	1.33
448.859	1.4
449.218	1.36
449.577	1.42
449.936	1.41
450.295	1.37
450.653	1.32
451.012	1.37
451.371	1.33
451.729	1.32
452.088	1.37
452.447	1.36
452.805	1.31
453.163	1.35
453.522	1.31
453.88	1.3
454.239	1.31
454.597	1.26
454.955	1.23
455.313	1.25
455.671	1.25
456.029	1.25
456.388	1.24
456.746	1.21
457.104	1.18
457.461	1.18
457.819	1.15
458.177	1.14
458.535	1.14
458.893	1.13
459.25	1.14
459.608	1.11
459.966	1.08
460.323	1.07
460.681	1.05
461.038	1.05
461.396	1.04
461.753	1.01
462.111	1.01
462.468	1
462.825	0.96
463.182	0.96
463.54	0.95
463.897	0.95
464.254	0.92
464.611	0.91
464.968	0.9
465.325	0.89
465.682	0.86
466.039	0.86
466.395	0.83
466.752	0.84
467.109	0.8
467.466	0.82
467.822	0.8
468.179	0.78
468.535	0.78
468.892	0.77
469.248	0.76
469.605	0.73
469.961	0.72
470.318	0.72
470.674	0.7
471.03	0.67
471.386	0.67
471.743	0.65
472.099	0.63
472.455	0.63
472.811	0.62
473.167	0.62
473.523	0.61
473.879	0.6
474.235	0.59
474.59	0.57
474.946	0.56
475.302	0.56
475.657	0.54
476.013	0.54
476.369	0.52
476.724	0.52
477.08	0.5
477.435	0.49
477.791	0.49
478.146	0.48
478.501	0.48
478.857	0.46
479.212	0.45
479.567	0.44
479.922	0.43
480.277	0.42
480.632	0.41
480.987	0.41
481.342	0.4
481.697	0.39
482.052	0.37
482.407	0.37
482.762	0.36
483.116	0.36
483.471	0.35
483.826	0.33
484.18	0.33
484.535	0.32
484.89	0.31
485.244	0.31
485.598	0.31
485.953	0.29
486.307	0.29
486.661	0.28
487.016	0.28
487.37	0.28
487.724	0.27
488.078	0.26
488.432	0.25
488.786	0.25
489.14	0.24
489.494	0.23
489.848	0.23
490.202	0.23
490.556	0.23
490.91	0.22
491.263	0.21
491.617	0.21
491.971	0.21
492.324	0.19
492.678	0.2
493.031	0.19
493.385	0.18
493.738	0.19
494.091	0.18
494.445	0.18
494.798	0.17
495.151	0.17
495.504	0.17
495.857	0.16
496.21	0.16
496.564	0.15
496.916	0.16
497.269	0.14
497.622	0.15
497.975	0.14
498.328	0.14
498.681	0.14
499.033	0.13
499.386	0.13
499.739	0.12
500.091	0.12
500.444	0.12
500.796	0.12
501.149	0.11
501.501	0.11
501.854	0.11
502.206	0.11
502.558	0.11
502.91	0.11
503.263	0.11
503.615	0.1
503.967	0.1
504.319	0.1
504.671	0.1
505.023	0.09
505.375	0.09
505.726	0.09
506.078	0.09
506.43	0.08
506.782	0.08
507.133	0.09
507.485	0.09
507.837	0.09
508.188	0.09
508.54	0.08
508.891	0.08
509.243	0.08
509.594	0.08
509.945	0.07
510.296	0.08
510.648	0.08
510.999	0.06
511.35	0.07
511.701	0.08
512.052	0.07
512.403	0.07
512.754	0.07
513.105	0.07
513.456	0.07
513.807	0.06
514.157	0.06
514.508	0.06
514.859	0.06
515.209	0.06
515.56	0.05
515.91	0.05
516.261	0.06
516.611	0.06
516.962	0.05
517.312	0.06
517.662	0.06
518.013	0.05
518.363	0.06
518.713	0.06
519.063	0.06
519.413	0.06
519.763	0.05
520.113	0.05
520.463	0.06
520.813	0.06
521.163	0.06
521.512	0.05
521.862	0.06
522.212	0.06
522.562	0.06
522.911	0.05
523.261	0.05
523.61	0.05
523.96	0.05
524.309	0.06
524.658	0.05
525.008	0.05
525.357	0.05
525.706	0.06
526.056	0.05
526.405	0.05
526.754	0.05
527.103	0.04
527.452	0.05
527.801	0.05
528.15	0.05
528.499	0.05
528.847	0.05
529.196	0.06
529.545	0.05
529.893	0.06
530.242	0.06
530.591	0.06
530.939	0.06
531.288	0.06
531.636	0.05
531.985	0.05
532.333	0.05
532.681	0.05
533.029	0.05
533.378	0.05
533.726	0.05
534.074	0.06
534.422	0.04
534.77	0.05
535.118	0.05
535.466	0.05
535.814	0.04
536.162	0.05
536.509	0.06
536.857	0.05
537.205	0.05
537.552	0.06
537.9	0.05
538.248	0.04
538.595	0.05
538.943	0.05
539.29	0.05
539.637	0.05
539.985	0.05
540.332	0.05
540.679	0.05
541.026	0.04
541.373	0.05
541.721	0.04
542.068	0.04
542.415	0.05
542.762	0.04
543.108	0.04
543.455	0.04
543.802	0.04
544.149	0.04
544.496	0.03
544.842	0.04
545.189	0.03
545.535	0.04
545.882	0.04
546.228	0.04
546.575	0.03
546.921	0.02
547.267	0.03
547.614	0.03
547.96	0.04
548.306	0.03
548.652	0.03
548.998	0.03
549.344	0.03
549.69	0.04
550.036	0.03
550.382	0.03
550.728	0.03
551.074	0.03
551.42	0.04
551.765	0.03
552.111	0.03
552.457	0.05
552.802	0.03
553.148	0.03
553.493	0.04
553.839	0.04
554.184	0.04
554.529	0.03
554.875	0.04
555.22	0.04
555.565	0.04
555.91	0.03
556.255	0.04
556.6	0.04
556.945	0.03
557.29	0.04
557.635	0.04
557.98	0.05
558.325	0.04
558.67	0.04
559.014	0.04
559.359	0.04
559.704	0.03
560.048	0.03
560.393	0.04
560.737	0.03
561.082	0.03
561.426	0.03
561.77	0.03
562.115	0.03
562.459	0.03
562.803	0.03
563.147	0.03
563.491	0.04
563.835	0.04
564.179	0.03
564.523	0.04
564.867	0.03
565.211	0.04
565.555	0.04
565.899	0.04
566.242	0.04
566.586	0.03
566.93	0.04
567.273	0.04
567.617	0.04
567.96	0.04
568.304	0.04
568.647	0.03
568.99	0.04
569.334	0.04
569.677	0.04
570.02	0.04
570.363	0.04
570.706	0.03
571.049	0.04
571.392	0.05
571.735	0.04
572.078	0.04
572.421	0.05
572.764	0.04
573.106	0.04
573.449	0.03
573.792	0.03
574.134	0.03
574.477	0.04
574.819	0.04
575.162	0.04
575.504	0.03
575.847	0.03
576.189	0.04
576.531	0.03
576.873	0.03
577.215	0.03
577.558	0.04
577.9	0.03
578.242	0.04
578.584	0.03
578.926	0.03
579.267	0.04
579.609	0.03
579.951	0.03
580.293	0.03
580.634	0.04
580.976	0.04
581.318	0.03
581.659	0.03
582.001	0.03
582.342	0.03
582.683	0.04
583.025	0.03
583.366	0.03
583.707	0.03
584.049	0.03
584.39	0.02
584.731	0.03
585.072	0.03
585.413	0.03
585.754	0.03
586.095	0.03
586.435	0.03
586.776	0.03
587.117	0.03
587.458	0.03
587.798	0.04
588.139	0.04
588.48	0.03
588.82	0.03
589.161	0.03
589.501	0.03
589.841	0.04
590.182	0.03
590.522	0.02
590.862	0.04
591.202	0.03
591.542	0.03
591.882	0.02
592.222	0.04
592.562	0.03
592.902	0.03
593.242	0.03
593.582	0.03
593.922	0.03
594.261	0.03
594.601	0.03
594.941	0.03
595.28	0.03
595.62	0.03
595.959	0.03
596.299	0.03
596.638	0.02
596.977	0.03
597.317	0.04
597.656	0.04
597.995	0.04
598.334	0.04
598.673	0.03
599.012	0.04
599.351	0.04
599.69	0.03
600.029	0.04
600.368	0.04
600.707	0.04
601.046	0.04
601.384	0.04
601.723	0.04
602.061	0.04
602.4	0.04
602.738	0.04
603.077	0.04
603.415	0.03
603.754	0.04
604.092	0.04
604.43	0.03
604.768	0.04
605.107	0.04
605.445	0.03
605.783	0.04
606.121	0.03
606.459	0.03
606.796	0.04
607.134	0.03
607.472	0.03
607.81	0.03
608.148	0.03
608.485	0.04
608.823	0.03
609.16	0.03
609.498	0.04
609.835	0.03
610.173	0.03
610.51	0.04
610.847	0.04
611.185	0.04
611.522	0.04
611.859	0.04
612.196	0.04
612.533	0.05
612.87	0.04
613.207	0.04
613.544	0.04
613.881	0.05
614.217	0.04
614.554	0.04
614.891	0.04
615.228	0.04
615.564	0.05
615.901	0.05
616.237	0.05
616.574	0.05
616.91	0.05
617.246	0.05
617.583	0.05
617.919	0.05
618.255	0.04
618.591	0.05
618.927	0.05
619.263	0.05
619.599	0.04
619.935	0.05
620.271	0.05
620.607	0.05
620.943	0.04
621.279	0.05
621.614	0.04
621.95	0.04
622.286	0.05
622.621	0.05
622.957	0.05
623.292	0.04
623.627	0.04
623.963	0.04
624.298	0.04
624.633	0.04
624.968	0.04
625.304	0.04
625.639	0.04
625.974	0.04
626.309	0.04
626.644	0.04
626.979	0.05
627.313	0.04
627.648	0.05
627.983	0.04
628.318	0.04
628.652	0.03
628.987	0.04
629.321	0.04
629.656	0.03
629.99	0.03
630.325	0.04
630.659	0.04
630.993	0.03
631.327	0.03
631.662	0.03
631.996	0.03
632.33	0.03
632.664	0.03
632.998	0.03
633.332	0.03
633.666	0.03
633.999	0.03
634.333	0.03
634.667	0.03
635.001	0.03
635.334	0.03
635.668	0.02
636.001	0.03
636.335	0.03
636.668	0.03
637.001	0.02
637.335	0.03
637.668	0.02
638.001	0.03
638.334	0.03
638.668	0.02
639.001	0.03
639.334	0.02
639.667	0.02
639.999	0.03
640.332	0.03
640.665	0.03
640.998	0.03
641.331	0.03
641.663	0.03
641.996	0.03
642.328	0.04
642.661	0.03
642.993	0.04
643.326	0.04
643.658	0.03
643.99	0.03
644.323	0.04
644.655	0.04
644.987	0.04
645.319	0.04
645.651	0.04
645.983	0.04
646.315	0.04
646.647	0.04
646.979	0.05
647.31	0.05
647.642	0.04
647.974	0.04
648.305	0.05
648.637	0.04
648.968	0.04
649.3	0.04
649.631	0.04
649.963	0.03
650.294	0.04
650.625	0.03
650.957	0.04
651.288	0.04
651.619	0.04
651.95	0.04
652.281	0.05
652.612	0.05
652.943	0.04
653.274	0.05
653.604	0.04
653.935	0.04
654.266	0.04
654.596	0.04
654.927	0.04
655.258	0.05
655.588	0.04
655.918	0.04
656.249	0.02
656.579	0.04
656.909	0.04
657.24	0.04
657.57	0.04
657.9	0.04
658.23	0.04
658.56	0.05
658.89	0.04
659.22	0.04
659.55	0.04
659.88	0.04
660.209	0.04
660.539	0.06
660.869	0.04
661.198	0.04
661.528	0.05
661.857	0.04
662.187	0.04
662.516	0.04
662.846	0.04
663.175	0.04
663.504	0.04
663.833	0.03
664.163	0.04
664.492	0.04
664.821	0.04
665.15	0.04
665.479	0.04
665.807	0.04
666.136	0.04
666.465	0.04
666.794	0.04
667.122	0.05
667.451	0.04
667.78	0.04
668.108	0.05
668.437	0.05
668.765	0.05
669.093	0.05
669.422	0.05
669.75	0.05
670.078	0.04
670.406	0.05
670.734	0.05
671.062	0.05
671.39	0.05
671.718	0.04
672.046	0.05
672.374	0.05
672.702	0.05
673.029	0.04
673.357	0.05
673.685	0.05
674.012	0.04
674.34	0.04
674.667	0.05
674.995	0.05
675.322	0.05
675.649	0.04
675.977	0.05
676.304	0.05
676.631	0.05
676.958	0.04
677.285	0.04
677.612	0.04
677.939	0.04
678.266	0.04
678.593	0.04
678.92	0.05
679.246	0.04
679.573	0.04
679.9	0.04
680.226	0.04
680.553	0.04
680.879	0.04
681.206	0.05
681.532	0.04
681.858	0.05
682.184	0.05
682.511	0.05
682.837	0.05
683.163	0.05
683.489	0.05
683.815	0.05
684.141	0.04
684.467	0.04
684.793	0.04
685.118	0.05
685.444	0.05
685.77	0.05
686.095	0.05
686.421	0.04
686.746	0.05
687.072	0.05
687.397	0.04
687.723	0.05
688.048	0.04
688.373	0.04
688.698	0.04
689.023	0.04
689.349	0.04
689.674	0.05
689.999	0.03
690.323	0.03
690.648	0.03
690.973	0.03
691.298	0.03
691.623	0.03
691.947	0.04
692.272	0.04
692.596	0.04
692.921	0.04
693.245	0.04
693.57	0.05
693.894	0.05
694.218	0.04
694.543	0.05
694.867	0.05
695.191	0.04
695.515	0.05
695.839	0.04
696.163	0.05
696.487	0.05
696.811	0.04
697.135	0.05
697.458	0.05
697.782	0.05
698.106	0.05
698.429	0.05
698.753	0.04
699.076	0.05
699.4	0.04
699.723	0.05
700.046	0.04
700.37	0.05
700.693	0.05
701.016	0.04
701.339	0.05
701.662	0.05
701.985	0.04
702.308	0.04
702.631	0.05
702.954	0.05
703.277	0.05
703.599	0.04
703.922	0.04
704.245	0.05
704.567	0.04
704.89	0.04
705.212	0.04
705.535	0.03
705.857	0.04
706.179	0.03
706.502	0.03
706.824	0.03
707.146	0.03
707.468	0.04
707.79	0.04
708.112	0.04
708.434	0.04
708.756	0.04
709.078	0.05
709.399	0.04
709.721	0.04
710.043	0.04
710.364	0.04
710.686	0.04
711.007	0.04
711.329	0.05
711.65	0.04
711.972	0.04
712.293	0.05
712.614	0.04
712.935	0.05
713.256	0.05
713.577	0.05
713.898	0.05
714.219	0.04
714.54	0.04
714.861	0.04
715.182	0.05
715.503	0.04
715.823	0.04
716.144	0.03
716.464	0.04
716.785	0.04
717.105	0.04
717.426	0.04
717.746	0.03
718.066	0.04
718.387	0.04
718.707	0.03
719.027	0.04
719.347	0.03
719.667	0.04
719.987	0.04
720.307	0.03
720.627	0.03
720.947	0.03
721.266	0.04
721.586	0.03
721.906	0.04
722.225	0.03
722.545	0.03
