Data from 12-12-AQDScycling_Absorbance__278__00278.txt Node

Date: Tue Dec 12 12:07:02 EST 2023
User: kyuminlee
Spectrometer: FLMS00943
Trigger mode: 0
Integration Time (sec): 1.000000E-1
Scans to average: 1
Electric dark correction enabled: true
Nonlinearity correction enabled: false
Boxcar width: 0
XAxis mode: Wavelengths
Number of Pixels in Spectrum: 2048
>>>>>Begin Spectral Data<<<<<
179.651	-0
180.037	-0
180.424	-0
180.81	-0.47
181.197	0.5
181.583	0.56
181.97	-0.43
182.356	-0
182.743	0.48
183.129	-0
183.515	-0
183.901	-0
184.288	0.34
184.674	-0
185.06	-0.44
185.446	0.72
185.832	-0
186.218	0.42
186.604	-0
186.99	0.05
187.376	0.61
187.762	0.13
188.148	0.46
188.534	-0.01
188.92	0.03
189.305	0.13
189.691	0.22
190.077	0.19
190.463	0.08
190.848	0.16
191.234	0.19
191.619	0.09
192.005	0.18
192.391	0.19
192.776	0.15
193.161	0.21
193.547	0.28
193.932	0.04
194.318	0.13
194.703	0.2
195.088	0.23
195.473	0.23
195.859	0.19
196.244	0.36
196.629	0.31
197.014	0.2
197.399	0.18
197.784	0.37
198.169	0.16
198.554	0.27
198.939	0.33
199.324	0.13
199.709	0.13
200.094	0.08
200.478	0.31
200.863	0.14
201.248	0.24
201.633	0.14
202.017	0.16
202.402	0.24
202.787	0.17
203.171	0.01
203.556	0.21
203.94	0.15
204.325	0.26
204.709	0.2
205.093	0.28
205.478	0.25
205.862	0.19
206.246	0.29
206.631	0.2
207.015	0.07
207.399	0.17
207.783	0.04
208.167	0.25
208.551	0.28
208.935	0.15
209.319	0.13
209.703	0.34
210.087	0.35
210.471	0.06
210.855	0.2
211.239	0.32
211.623	0.34
212.007	0.27
212.39	0.37
212.774	0.22
213.158	0.25
213.541	0.32
213.925	0.17
214.309	0.48
214.692	0.33
215.076	0.41
215.459	0.17
215.842	0.13
216.226	0.31
216.609	0.29
216.993	0.33
217.376	0.47
217.759	0.28
218.142	0.37
218.525	0.6
218.909	0.46
219.292	0.34
219.675	0.55
220.058	0.47
220.441	0.55
220.824	0.45
221.207	0.66
221.59	0.47
221.973	0.66
222.355	0.53
222.738	0.74
223.121	0.65
223.504	0.54
223.886	0.79
224.269	0.84
224.652	0.6
225.034	0.9
225.417	0.81
225.799	0.73
226.182	0.96
226.564	0.84
226.947	0.8
227.329	0.8
227.711	0.97
228.094	0.9
228.476	1.05
228.858	0.89
229.24	0.91
229.623	1.03
230.005	0.89
230.387	0.89
230.769	0.88
231.151	1.13
231.533	1.02
231.915	1.04
232.297	1.08
232.679	1.06
233.061	1.01
233.442	1.03
233.824	1.26
234.206	1.19
234.588	1.1
234.969	1.03
235.351	0.96
235.733	1.07
236.114	1.21
236.496	1.04
236.877	1.1
237.259	1.24
237.64	1.02
238.022	1.05
238.403	0.94
238.784	1.16
239.165	1
239.547	1.14
239.928	1.13
240.309	1.2
240.69	1.15
241.071	1.24
241.452	1.24
241.834	1.04
242.215	1.08
242.595	1.06
242.976	1.08
243.357	1.16
243.738	1.02
244.119	1.19
244.5	1.18
244.881	1.24
245.261	1.35
245.642	1.26
246.023	1.21
246.403	1.11
246.784	1.26
247.164	1.4
247.545	1.33
247.925	1.47
248.306	1.38
248.686	1.57
249.067	1.27
249.447	1.38
249.827	1.4
250.207	1.42
250.588	1.32
250.968	1.52
251.348	1.38
251.728	1.51
252.108	1.41
252.488	1.41
252.868	1.33
253.248	1.34
253.628	1.37
254.008	1.7
254.388	1.35
254.768	1.38
255.147	1.42
255.527	1.73
255.907	1.59
256.287	1.42
256.666	1.51
257.046	1.41
257.425	1.57
257.805	1.39
258.184	1.35
258.564	1.54
258.943	1.41
259.323	1.67
259.702	1.48
260.081	1.71
260.461	1.53
260.84	1.44
261.219	1.88
261.598	1.55
261.977	1.42
262.356	1.65
262.736	1.63
263.115	1.5
263.494	1.54
263.873	1.7
264.251	1.63
264.63	1.58
265.009	1.55
265.388	1.53
265.767	1.43
266.145	1.53
266.524	1.83
266.903	1.61
267.281	1.54
267.66	1.5
268.039	1.66
268.417	1.57
268.796	1.43
269.174	1.39
269.552	1.4
269.931	1.56
270.309	1.41
270.687	1.56
271.066	1.58
271.444	1.36
271.822	1.65
272.2	1.57
272.578	1.56
272.956	1.44
273.334	1.32
273.712	1.57
274.09	1.43
274.468	1.41
274.846	1.4
275.224	1.41
275.602	1.49
275.98	1.83
276.357	1.53
276.735	1.55
277.113	1.64
277.49	1.43
277.868	1.26
278.246	1.4
278.623	1.35
279.001	1.34
279.378	1.31
279.756	1.67
280.133	1.65
280.51	1.45
280.888	1.6
281.265	1.33
281.642	1.53
282.019	1.65
282.396	1.61
282.773	1.52
283.151	1.55
283.528	1.49
283.905	1.39
284.282	1.67
284.659	1.65
285.035	1.4
285.412	1.5
285.789	1.49
286.166	1.45
286.543	1.61
286.919	1.53
287.296	1.4
287.673	1.5
288.049	1.71
288.426	1.56
288.802	1.55
289.179	1.67
289.555	1.56
289.932	1.55
290.308	1.39
290.684	1.47
291.061	1.48
291.437	1.55
291.813	1.52
292.189	1.42
292.565	1.28
292.942	1.47
293.318	1.36
293.694	1.55
294.07	1.34
294.446	1.51
294.822	2.2
295.197	1.51
295.573	1.46
295.949	1.51
296.325	1.48
296.701	1.72
297.076	1.54
297.452	1.67
297.828	1.41
298.203	1.81
298.579	1.55
298.954	1.43
299.33	1.42
299.705	1.56
300.081	1.53
300.456	1.56
300.831	1.52
301.206	1.49
301.582	1.43
301.957	1.41
302.332	1.65
302.707	1.42
303.082	1.54
303.457	1.55
303.832	1.5
304.207	1.41
304.582	1.54
304.957	1.44
305.332	1.55
305.707	1.49
306.082	1.59
306.456	1.67
306.831	1.38
307.206	1.47
307.58	1.57
307.955	1.34
308.33	1.46
308.704	1.46
309.079	1.45
309.453	1.54
309.828	1.47
310.202	1.38
310.576	1.43
310.951	1.39
311.325	1.55
311.699	1.44
312.073	1.44
312.447	1.41
312.821	1.42
313.196	1.58
313.57	1.3
313.944	1.38
314.317	1.33
314.691	1.5
315.065	1.44
315.439	1.5
315.813	1.49
316.187	1.38
316.56	1.45
316.934	1.47
317.308	1.41
317.681	1.47
318.055	1.43
318.428	1.36
318.802	1.5
319.175	1.39
319.549	1.47
319.922	1.32
320.295	1.48
320.669	1.65
321.042	1.47
321.415	1.55
321.788	1.49
322.162	1.47
322.535	1.55
322.908	1.42
323.281	1.52
323.654	1.54
324.027	1.48
324.4	1.63
324.773	1.73
325.145	1.46
325.518	1.4
325.891	1.51
326.264	1.62
326.636	1.49
327.009	1.44
327.382	1.54
327.754	1.6
328.127	1.43
328.499	1.5
328.872	1.53
329.244	1.55
329.616	1.34
329.989	1.53
330.361	1.46
330.733	1.65
331.106	1.38
331.478	1.52
331.85	1.49
332.222	1.43
332.594	1.8
332.966	1.47
333.338	1.55
333.71	1.73
334.082	1.68
334.454	1.45
334.826	1.43
335.197	1.62
335.569	1.53
335.941	1.43
336.312	1.51
336.684	1.44
337.056	1.42
337.427	1.57
337.799	1.58
338.17	1.54
338.542	1.48
338.913	1.52
339.284	1.5
339.656	1.59
340.027	1.58
340.398	1.51
340.769	1.54
341.141	1.64
341.512	1.54
341.883	1.58
342.254	1.55
342.625	1.68
342.996	1.46
343.367	1.58
343.738	1.59
344.108	1.54
344.479	2.08
344.85	1.41
345.221	1.56
345.591	1.49
345.962	1.38
346.333	1.4
346.703	1.31
347.074	1.4
347.444	1.27
347.815	1.45
348.185	1.43
348.556	1.3
348.926	1.35
349.296	1.44
349.666	1.35
350.037	1.42
350.407	1.24
350.777	1.4
351.147	1.39
351.517	1.37
351.887	1.38
352.257	1.46
352.627	1.33
352.997	1.4
353.367	1.4
353.737	1.42
354.106	1.42
354.476	1.25
354.846	1.45
355.216	1.38
355.585	1.4
355.955	1.37
356.324	1.47
356.694	1.36
357.063	1.34
357.433	1.38
357.802	1.39
358.171	1.4
358.541	1.34
358.91	1.44
359.279	1.43
359.648	1.36
360.017	1.4
360.387	1.32
360.756	1.24
361.125	1.36
361.494	1.39
361.863	1.35
362.231	1.44
362.6	1.4
362.969	1.38
363.338	1.35
363.707	1.36
364.075	1.38
364.444	1.24
364.813	1.29
365.181	1.32
365.55	1.37
365.918	1.47
366.287	1.35
366.655	1.35
367.024	1.42
367.392	1.42
367.76	1.29
368.128	1.35
368.497	1.35
368.865	1.31
369.233	1.3
369.601	1.37
369.969	1.33
370.337	1.33
370.705	1.36
371.073	1.3
371.441	1.35
371.809	1.28
372.177	1.32
372.544	1.28
372.912	1.39
373.28	1.31
373.647	1.38
374.015	1.41
374.383	1.45
374.75	1.36
375.118	1.49
375.485	1.47
375.853	1.47
376.22	1.33
376.587	1.4
376.955	1.45
377.322	1.44
377.689	1.33
378.056	1.33
378.423	1.32
378.79	1.39
379.157	1.5
379.524	1.34
379.891	1.33
380.258	1.33
380.625	1.4
380.992	1.4
381.359	1.47
381.726	1.5
382.092	1.42
382.459	1.47
382.826	1.42
383.192	1.52
383.559	1.47
383.925	1.51
384.292	1.45
384.658	1.62
385.025	1.48
385.391	1.45
385.757	1.53
386.123	1.59
386.49	1.47
386.856	1.83
387.222	1.51
387.588	1.45
387.954	1.77
388.32	1.82
388.686	1.47
389.052	1.44
389.418	1.56
389.784	1.5
390.15	1.46
390.515	1.39
390.881	1.65
391.247	1.47
391.613	1.62
391.978	1.42
392.344	1.56
392.709	1.45
393.075	1.53
393.44	1.58
393.806	1.57
394.171	1.5
394.536	1.44
394.902	1.53
395.267	1.49
395.632	1.53
395.997	1.35
396.362	1.47
396.727	1.48
397.092	1.47
397.457	1.58
397.822	1.45
398.187	1.45
398.552	1.51
398.917	1.46
399.282	1.43
399.646	1.45
400.011	1.47
400.376	1.37
400.74	1.46
401.105	1.45
401.47	1.46
401.834	1.43
402.199	1.5
402.563	1.31
402.927	1.41
403.292	1.49
403.656	1.48
404.02	1.4
404.384	1.46
404.749	1.42
405.113	1.54
405.477	1.48
405.841	1.35
406.205	1.39
406.569	1.48
406.933	1.28
407.296	1.32
407.66	1.25
408.024	1.38
408.388	1.4
408.752	1.34
409.115	1.36
409.479	1.37
409.842	1.31
410.206	1.17
410.569	1.33
410.933	1.32
411.296	1.21
411.66	1.25
412.023	1.21
412.386	1.19
412.749	1.2
413.113	1.26
413.476	1.28
413.839	1.22
414.202	1.27
414.565	1.12
414.928	1.19
415.291	1.12
415.654	1.15
416.017	1.28
416.38	1.17
416.742	1.15
417.105	1.14
417.468	1.19
417.83	1.22
418.193	1.2
418.556	1.18
418.918	1.11
419.281	1.19
419.643	1.24
420.005	1.14
420.368	1.15
420.73	1.08
421.092	1.13
421.455	1.15
421.817	1.08
422.179	1.1
422.541	1.14
422.903	1.23
423.265	1.19
423.627	1.13
423.989	1.09
424.351	1.07
424.713	1.12
425.075	1.15
425.436	1.1
425.798	1.08
426.16	1.15
426.521	1.16
426.883	1.08
427.245	1.12
427.606	1.13
427.967	1.06
428.329	1.08
428.69	1.13
429.052	1.08
429.413	1.09
429.774	1.05
430.135	1.1
430.497	1.07
430.858	1.04
431.219	1.05
431.58	1.03
431.941	1.07
432.302	1.01
432.663	1.06
433.024	1.04
433.384	1.06
433.745	1.04
434.106	1.04
434.467	1.01
434.827	1.06
435.188	1.06
435.548	1.04
435.909	0.99
436.269	1.03
436.63	1
436.99	0.99
437.351	0.96
437.711	1.01
438.071	0.99
438.431	0.97
438.792	0.97
439.152	0.95
439.512	0.98
439.872	0.97
440.232	0.97
440.592	0.98
440.952	0.95
441.312	0.95
441.671	0.94
442.031	0.94
442.391	0.91
442.751	0.96
443.11	0.91
443.47	0.9
443.83	0.86
444.189	0.88
444.549	0.91
444.908	0.89
445.267	0.9
445.627	0.89
445.986	0.86
446.345	0.86
446.705	0.87
447.064	0.87
447.423	0.86
447.782	0.86
448.141	0.84
448.5	0.83
448.859	0.82
449.218	0.85
449.577	0.82
449.936	0.84
450.295	0.81
450.653	0.83
451.012	0.82
451.371	0.8
451.729	0.8
452.088	0.79
452.447	0.81
452.805	0.79
453.163	0.79
453.522	0.79
453.88	0.76
454.239	0.77
454.597	0.74
454.955	0.74
455.313	0.74
455.671	0.75
456.029	0.75
456.388	0.72
456.746	0.71
457.104	0.71
457.461	0.69
457.819	0.69
458.177	0.69
458.535	0.67
458.893	0.67
459.25	0.65
459.608	0.66
459.966	0.64
460.323	0.64
460.681	0.64
461.038	0.63
461.396	0.61
461.753	0.62
462.111	0.6
462.468	0.59
462.825	0.59
463.182	0.58
463.54	0.57
463.897	0.58
464.254	0.55
464.611	0.56
464.968	0.55
465.325	0.54
465.682	0.55
466.039	0.53
466.395	0.54
466.752	0.52
467.109	0.52
467.466	0.51
467.822	0.51
468.179	0.49
468.535	0.49
468.892	0.49
469.248	0.47
469.605	0.47
469.961	0.47
470.318	0.48
470.674	0.45
471.03	0.45
471.386	0.46
471.743	0.45
472.099	0.44
472.455	0.43
472.811	0.42
473.167	0.42
473.523	0.41
473.879	0.4
474.235	0.4
474.59	0.39
474.946	0.39
475.302	0.39
475.657	0.38
476.013	0.37
476.369	0.37
476.724	0.37
477.08	0.36
477.435	0.35
477.791	0.35
478.146	0.35
478.501	0.35
478.857	0.34
479.212	0.33
479.567	0.33
479.922	0.33
480.277	0.32
480.632	0.32
480.987	0.32
481.342	0.31
481.697	0.31
482.052	0.3
482.407	0.3
482.762	0.29
483.116	0.29
483.471	0.29
483.826	0.27
484.18	0.28
484.535	0.27
484.89	0.28
485.244	0.28
485.598	0.27
485.953	0.26
486.307	0.26
486.661	0.27
487.016	0.26
487.37	0.26
487.724	0.25
488.078	0.25
488.432	0.25
488.786	0.25
489.14	0.25
489.494	0.24
489.848	0.23
490.202	0.23
490.556	0.23
490.91	0.23
491.263	0.23
491.617	0.23
491.971	0.23
492.324	0.22
492.678	0.22
493.031	0.22
493.385	0.22
493.738	0.21
494.091	0.22
494.445	0.22
494.798	0.21
495.151	0.2
495.504	0.21
495.857	0.21
496.21	0.21
496.564	0.2
496.916	0.21
497.269	0.2
497.622	0.2
497.975	0.2
498.328	0.2
498.681	0.2
499.033	0.2
499.386	0.2
499.739	0.2
500.091	0.19
500.444	0.19
500.796	0.19
501.149	0.18
501.501	0.19
501.854	0.19
502.206	0.18
502.558	0.19
502.91	0.18
503.263	0.18
503.615	0.19
503.967	0.18
504.319	0.18
504.671	0.18
505.023	0.17
505.375	0.17
505.726	0.18
506.078	0.17
506.43	0.18
506.782	0.17
507.133	0.17
507.485	0.18
507.837	0.18
508.188	0.18
508.54	0.18
508.891	0.18
509.243	0.18
509.594	0.18
509.945	0.17
510.296	0.17
510.648	0.17
510.999	0.17
511.35	0.17
511.701	0.17
512.052	0.17
512.403	0.17
512.754	0.17
513.105	0.17
513.456	0.16
513.807	0.16
514.157	0.17
514.508	0.17
514.859	0.17
515.209	0.17
515.56	0.16
515.91	0.16
516.261	0.17
516.611	0.16
516.962	0.16
517.312	0.16
517.662	0.17
518.013	0.16
518.363	0.17
518.713	0.16
519.063	0.16
519.413	0.16
519.763	0.16
520.113	0.16
520.463	0.16
520.813	0.17
521.163	0.17
521.512	0.16
521.862	0.16
522.212	0.17
522.562	0.16
522.911	0.17
523.261	0.16
523.61	0.16
523.96	0.16
524.309	0.16
524.658	0.17
525.008	0.16
525.357	0.16
525.706	0.17
526.056	0.16
526.405	0.16
526.754	0.16
527.103	0.16
527.452	0.16
527.801	0.17
528.15	0.17
528.499	0.16
528.847	0.16
529.196	0.17
529.545	0.18
529.893	0.17
530.242	0.17
530.591	0.18
530.939	0.18
531.288	0.17
531.636	0.18
531.985	0.18
532.333	0.17
532.681	0.17
533.029	0.18
533.378	0.17
533.726	0.17
534.074	0.18
534.422	0.17
534.77	0.18
535.118	0.18
535.466	0.18
535.814	0.17
536.162	0.18
536.509	0.18
536.857	0.17
537.205	0.18
537.552	0.18
537.9	0.18
538.248	0.17
538.595	0.17
538.943	0.18
539.29	0.17
539.637	0.17
539.985	0.18
540.332	0.17
540.679	0.17
541.026	0.17
541.373	0.18
541.721	0.16
542.068	0.17
542.415	0.17
542.762	0.17
543.108	0.16
543.455	0.16
543.802	0.16
544.149	0.16
544.496	0.16
544.842	0.16
545.189	0.17
545.535	0.16
545.882	0.17
546.228	0.17
546.575	0.16
546.921	0.16
547.267	0.16
547.614	0.17
547.96	0.16
548.306	0.15
548.652	0.16
548.998	0.18
549.344	0.16
549.69	0.17
550.036	0.17
550.382	0.17
550.728	0.17
551.074	0.17
551.42	0.17
551.765	0.17
552.111	0.17
552.457	0.18
552.802	0.18
553.148	0.18
553.493	0.17
553.839	0.18
554.184	0.17
554.529	0.18
554.875	0.17
555.22	0.18
555.565	0.17
555.91	0.17
556.255	0.19
556.6	0.18
556.945	0.17
557.29	0.17
557.635	0.18
557.98	0.17
558.325	0.17
558.67	0.18
559.014	0.17
559.359	0.18
559.704	0.17
560.048	0.17
560.393	0.17
560.737	0.16
561.082	0.17
561.426	0.16
561.77	0.17
562.115	0.17
562.459	0.16
562.803	0.17
563.147	0.17
563.491	0.17
563.835	0.17
564.179	0.17
564.523	0.17
564.867	0.16
565.211	0.17
565.555	0.18
565.899	0.17
566.242	0.18
566.586	0.16
566.93	0.18
567.273	0.18
567.617	0.18
567.96	0.18
568.304	0.18
568.647	0.17
568.99	0.17
569.334	0.18
569.677	0.18
570.02	0.18
570.363	0.18
570.706	0.17
571.049	0.18
571.392	0.18
571.735	0.17
572.078	0.18
572.421	0.18
572.764	0.17
573.106	0.17
573.449	0.17
573.792	0.17
574.134	0.17
574.477	0.17
574.819	0.17
575.162	0.18
575.504	0.17
575.847	0.18
576.189	0.18
576.531	0.17
576.873	0.17
577.215	0.17
577.558	0.18
577.9	0.16
578.242	0.17
578.584	0.17
578.926	0.17
579.267	0.18
579.609	0.17
579.951	0.18
580.293	0.17
580.634	0.18
580.976	0.19
581.318	0.18
581.659	0.18
582.001	0.18
582.342	0.17
582.683	0.17
583.025	0.17
583.366	0.18
583.707	0.17
584.049	0.17
584.39	0.17
584.731	0.17
585.072	0.16
585.413	0.18
585.754	0.18
586.095	0.18
586.435	0.17
586.776	0.17
587.117	0.17
587.458	0.18
587.798	0.17
588.139	0.18
588.48	0.17
588.82	0.17
589.161	0.17
589.501	0.17
589.841	0.17
590.182	0.17
590.522	0.17
590.862	0.17
591.202	0.16
591.542	0.17
591.882	0.16
592.222	0.17
592.562	0.16
592.902	0.16
593.242	0.16
593.582	0.18
593.922	0.16
594.261	0.16
594.601	0.17
594.941	0.17
595.28	0.17
595.62	0.18
595.959	0.17
596.299	0.17
596.638	0.16
596.977	0.17
597.317	0.18
597.656	0.17
597.995	0.17
598.334	0.18
598.673	0.17
599.012	0.16
599.351	0.17
599.69	0.16
600.029	0.17
600.368	0.17
600.707	0.17
601.046	0.16
601.384	0.18
601.723	0.17
602.061	0.17
602.4	0.17
602.738	0.17
603.077	0.17
603.415	0.16
603.754	0.17
604.092	0.17
604.43	0.17
604.768	0.17
605.107	0.17
605.445	0.16
605.783	0.17
606.121	0.16
606.459	0.17
606.796	0.17
607.134	0.16
607.472	0.16
607.81	0.17
608.148	0.17
608.485	0.17
608.823	0.16
609.16	0.16
609.498	0.16
609.835	0.16
610.173	0.16
610.51	0.17
610.847	0.17
611.185	0.17
611.522	0.17
611.859	0.17
612.196	0.18
612.533	0.18
612.87	0.18
613.207	0.17
613.544	0.17
613.881	0.18
614.217	0.18
614.554	0.17
614.891	0.17
615.228	0.17
615.564	0.17
615.901	0.17
616.237	0.17
616.574	0.17
616.91	0.18
617.246	0.18
617.583	0.17
617.919	0.18
618.255	0.18
618.591	0.18
618.927	0.18
619.263	0.17
619.599	0.18
619.935	0.18
620.271	0.18
620.607	0.17
620.943	0.17
621.279	0.18
621.614	0.17
621.95	0.17
622.286	0.17
622.621	0.17
622.957	0.16
623.292	0.16
623.627	0.16
623.963	0.16
624.298	0.16
624.633	0.16
624.968	0.16
625.304	0.16
625.639	0.15
625.974	0.16
626.309	0.16
626.644	0.16
626.979	0.16
627.313	0.16
627.648	0.16
627.983	0.16
628.318	0.15
628.652	0.15
628.987	0.16
629.321	0.16
629.656	0.15
629.99	0.15
630.325	0.16
630.659	0.16
630.993	0.16
631.327	0.15
631.662	0.15
631.996	0.15
632.33	0.15
632.664	0.16
632.998	0.15
633.332	0.15
633.666	0.15
633.999	0.15
634.333	0.15
634.667	0.15
635.001	0.14
635.334	0.15
635.668	0.14
636.001	0.15
636.335	0.15
636.668	0.15
637.001	0.14
637.335	0.15
637.668	0.15
638.001	0.14
638.334	0.14
638.668	0.14
639.001	0.14
639.334	0.14
639.667	0.14
639.999	0.14
640.332	0.14
640.665	0.13
640.998	0.13
641.331	0.14
641.663	0.13
641.996	0.14
642.328	0.14
642.661	0.14
642.993	0.14
643.326	0.14
643.658	0.13
643.99	0.13
644.323	0.13
644.655	0.14
644.987	0.14
645.319	0.13
645.651	0.13
645.983	0.13
646.315	0.14
646.647	0.14
646.979	0.15
647.31	0.15
647.642	0.14
647.974	0.14
648.305	0.15
648.637	0.14
648.968	0.14
649.3	0.15
649.631	0.14
649.963	0.14
650.294	0.15
650.625	0.14
650.957	0.15
651.288	0.14
651.619	0.14
651.95	0.15
652.281	0.14
652.612	0.14
652.943	0.14
653.274	0.14
653.604	0.15
653.935	0.14
654.266	0.15
654.596	0.14
654.927	0.14
655.258	0.14
655.588	0.15
655.918	0.14
656.249	0.12
656.579	0.14
656.909	0.13
657.24	0.14
657.57	0.14
657.9	0.15
658.23	0.14
658.56	0.14
658.89	0.15
659.22	0.14
659.55	0.14
659.88	0.15
660.209	0.14
660.539	0.15
660.869	0.15
661.198	0.14
661.528	0.14
661.857	0.14
662.187	0.15
662.516	0.15
662.846	0.13
663.175	0.14
663.504	0.14
663.833	0.14
664.163	0.14
664.492	0.13
664.821	0.14
665.15	0.13
665.479	0.13
665.807	0.13
666.136	0.14
666.465	0.13
666.794	0.14
667.122	0.13
667.451	0.13
667.78	0.13
668.108	0.13
668.437	0.13
668.765	0.13
669.093	0.14
669.422	0.13
669.75	0.13
670.078	0.13
670.406	0.14
670.734	0.14
671.062	0.14
671.39	0.13
671.718	0.13
672.046	0.13
672.374	0.13
672.702	0.13
673.029	0.13
673.357	0.13
673.685	0.14
674.012	0.13
674.34	0.13
674.667	0.13
674.995	0.13
675.322	0.13
675.649	0.13
675.977	0.13
676.304	0.13
676.631	0.13
676.958	0.13
677.285	0.12
677.612	0.12
677.939	0.12
678.266	0.13
678.593	0.13
678.92	0.13
679.246	0.13
679.573	0.13
679.9	0.12
680.226	0.12
680.553	0.11
680.879	0.12
681.206	0.12
681.532	0.11
681.858	0.12
682.184	0.11
682.511	0.12
682.837	0.11
683.163	0.12
683.489	0.12
683.815	0.11
684.141	0.11
684.467	0.12
684.793	0.12
685.118	0.11
685.444	0.12
685.77	0.11
686.095	0.12
686.421	0.12
686.746	0.12
687.072	0.12
687.397	0.11
687.723	0.13
688.048	0.12
688.373	0.12
688.698	0.12
689.023	0.12
689.349	0.12
689.674	0.13
689.999	0.11
690.323	0.11
690.648	0.11
690.973	0.11
691.298	0.11
691.623	0.11
691.947	0.11
692.272	0.11
692.596	0.1
692.921	0.11
693.245	0.1
693.57	0.11
693.894	0.11
694.218	0.11
694.543	0.11
694.867	0.11
695.191	0.1
695.515	0.11
695.839	0.11
696.163	0.1
696.487	0.1
696.811	0.11
697.135	0.11
697.458	0.1
697.782	0.1
698.106	0.11
698.429	0.11
698.753	0.1
699.076	0.1
699.4	0.1
699.723	0.11
700.046	0.1
700.37	0.11
700.693	0.11
701.016	0.1
701.339	0.1
701.662	0.1
701.985	0.11
702.308	0.11
702.631	0.11
702.954	0.11
703.277	0.11
703.599	0.11
703.922	0.1
704.245	0.1
704.567	0.1
704.89	0.1
705.212	0.1
705.535	0.09
705.857	0.09
706.179	0.09
706.502	0.09
706.824	0.09
707.146	0.09
707.468	0.1
707.79	0.09
708.112	0.09
708.434	0.09
708.756	0.1
709.078	0.09
709.399	0.1
709.721	0.09
710.043	0.1
710.364	0.1
710.686	0.09
711.007	0.1
711.329	0.11
711.65	0.1
711.972	0.09
712.293	0.09
712.614	0.1
712.935	0.09
713.256	0.09
713.577	0.11
713.898	0.09
714.219	0.09
714.54	0.09
714.861	0.09
715.182	0.09
715.503	0.09
715.823	0.09
716.144	0.08
716.464	0.09
716.785	0.08
717.105	0.08
717.426	0.09
717.746	0.08
718.066	0.07
718.387	0.08
718.707	0.07
719.027	0.08
719.347	0.07
719.667	0.08
719.987	0.07
720.307	0.07
720.627	0.08
720.947	0.07
721.266	0.07
721.586	0.07
721.906	0.08
722.225	0.06
722.545	0.07
722.864	0.07
723.184	0.07
723.503	0.07
