Data from 12-12-AQDScycling_Absorbance__939__00939.txt Node

Date: Tue Dec 12 14:51:29 EST 2023
User: kyuminlee
Spectrometer: FLMS00943
Trigger mode: 0
Integration Time (sec): 1.000000E-1
Scans to average: 1
Electric dark correction enabled: true
Nonlinearity correction enabled: false
Boxcar width: 0
XAxis mode: Wavelengths
Number of Pixels in Spectrum: 2048
>>>>>Begin Spectral Data<<<<<
179.651	-0
180.037	-0
180.424	-0
180.81	-0.38
181.197	0.23
181.583	-0.49
181.97	0.25
182.356	-0
182.743	-0.88
183.129	0.51
183.515	-0
183.901	-2.24
184.288	0.69
184.674	-0
185.06	-0.63
185.446	-0.02
185.832	-1.18
186.218	-0
186.604	-0
186.99	-0
187.376	-0
187.762	-0
188.148	0.35
188.534	-0.44
188.92	-0
189.305	0.01
189.691	0.15
190.077	0.18
190.463	0.04
190.848	0.04
191.234	-0.02
191.619	0.02
192.005	0.17
192.391	0.09
192.776	0.18
193.161	0.21
193.547	0.05
193.932	0.01
194.318	0.11
194.703	0.26
195.088	0.14
195.473	0.16
195.859	0.13
196.244	0.22
196.629	0.11
197.014	-0.1
197.399	0.16
197.784	0.22
198.169	0.12
198.554	0.23
198.939	0.04
199.324	0.08
199.709	0.09
200.094	0.03
200.478	0.07
200.863	0.17
201.248	0.28
201.633	0.07
202.017	0.05
202.402	0.2
202.787	0.13
203.171	0.13
203.556	0.18
203.94	0.06
204.325	0.21
204.709	0.2
205.093	0.13
205.478	0.16
205.862	0.06
206.246	0.27
206.631	-0.03
207.015	0.12
207.399	0.18
207.783	0.03
208.167	0.15
208.551	0.21
208.935	0.15
209.319	0.17
209.703	0.11
210.087	0.31
210.471	0.18
210.855	0.13
211.239	0.34
211.623	0.22
212.007	0.19
212.39	0.31
212.774	0.22
213.158	0.06
213.541	0.24
213.925	0.16
214.309	0.35
214.692	0.26
215.076	0.16
215.459	0.23
215.842	0.09
216.226	0.12
216.609	0.31
216.993	0.21
217.376	0.28
217.759	0.28
218.142	0.24
218.525	0.36
218.909	0.3
219.292	0.36
219.675	0.34
220.058	0.38
220.441	0.46
220.824	0.55
221.207	0.56
221.59	0.46
221.973	0.57
222.355	0.74
222.738	0.75
223.121	0.63
223.504	0.49
223.886	0.75
224.269	0.59
224.652	0.71
225.034	0.84
225.417	0.73
225.799	0.73
226.182	0.85
226.564	0.68
226.947	0.78
227.329	0.83
227.711	1.02
228.094	0.96
228.476	0.87
228.858	0.87
229.24	0.72
229.623	0.84
230.005	0.79
230.387	0.79
230.769	0.85
231.151	0.88
231.533	0.82
231.915	0.97
232.297	0.95
232.679	0.94
233.061	0.98
233.442	0.97
233.824	0.96
234.206	1.17
234.588	1.01
234.969	1
235.351	0.94
235.733	1.04
236.114	1.16
236.496	1.04
236.877	1.02
237.259	1.03
237.64	0.97
238.022	1.01
238.403	1.06
238.784	1
239.165	1.06
239.547	1.11
239.928	1.04
240.309	1.13
240.69	1.06
241.071	1.08
241.452	1.11
241.834	0.98
242.215	1
242.595	1.04
242.976	1.08
243.357	1.18
243.738	0.95
244.119	1.37
244.5	1.16
244.881	1.29
245.261	1.15
245.642	1.12
246.023	1.2
246.403	1.12
246.784	1.17
247.164	1.33
247.545	1.32
247.925	1.25
248.306	1.17
248.686	1.38
249.067	1.23
249.447	1.24
249.827	1.24
250.207	1.6
250.588	1.38
250.968	1.5
251.348	1.31
251.728	1.63
252.108	1.42
252.488	1.34
252.868	1.33
253.248	1.34
253.628	1.43
254.008	1.36
254.388	1.34
254.768	1.41
255.147	1.39
255.527	1.38
255.907	1.43
256.287	1.32
256.666	1.44
257.046	1.53
257.425	1.51
257.805	1.25
258.184	1.38
258.564	1.28
258.943	1.35
259.323	1.38
259.702	1.47
260.081	1.34
260.461	1.42
260.84	1.4
261.219	1.67
261.598	1.47
261.977	1.39
262.356	1.54
262.736	1.5
263.115	1.46
263.494	1.4
263.873	1.46
264.251	1.53
264.63	1.58
265.009	1.39
265.388	1.34
265.767	1.4
266.145	1.52
266.524	1.38
266.903	1.41
267.281	1.36
267.66	1.44
268.039	1.41
268.417	1.32
268.796	1.46
269.174	1.27
269.552	1.32
269.931	1.39
270.309	1.48
270.687	1.47
271.066	1.59
271.444	1.31
271.822	1.37
272.2	1.42
272.578	1.38
272.956	1.38
273.334	1.35
273.712	1.5
274.09	1.53
274.468	1.4
274.846	1.29
275.224	1.42
275.602	1.44
275.98	1.41
276.357	1.4
276.735	1.67
277.113	1.34
277.49	1.24
277.868	1.37
278.246	1.53
278.623	1.37
279.001	1.48
279.378	1.41
279.756	1.63
280.133	1.55
280.51	1.33
280.888	1.41
281.265	1.41
281.642	1.56
282.019	1.62
282.396	1.43
282.773	1.47
283.151	1.6
283.528	1.51
283.905	1.38
284.282	1.54
284.659	1.6
285.035	1.31
285.412	1.34
285.789	1.56
286.166	1.34
286.543	1.39
286.919	1.52
287.296	1.34
287.673	1.85
288.049	1.47
288.426	1.46
288.802	1.53
289.179	1.54
289.555	1.81
289.932	1.48
290.308	1.41
290.684	1.42
291.061	1.26
291.437	1.51
291.813	1.39
292.189	1.28
292.565	1.25
292.942	1.28
293.318	1.34
293.694	1.38
294.07	1.28
294.446	1.39
294.822	1.53
295.197	1.35
295.573	1.46
295.949	1.58
296.325	1.42
296.701	1.59
297.076	1.57
297.452	1.6
297.828	1.38
298.203	1.55
298.579	1.44
298.954	1.5
299.33	1.44
299.705	1.46
300.081	1.56
300.456	1.54
300.831	1.52
301.206	1.43
301.582	1.73
301.957	1.47
302.332	1.6
302.707	1.47
303.082	1.42
303.457	1.42
303.832	1.59
304.207	1.44
304.582	1.43
304.957	1.59
305.332	1.46
305.707	1.55
306.082	1.51
306.456	1.54
306.831	1.45
307.206	1.48
307.58	1.38
307.955	1.5
308.33	1.55
308.704	1.55
309.079	1.49
309.453	1.59
309.828	1.41
310.202	1.48
310.576	1.6
310.951	1.73
311.325	1.57
311.699	1.5
312.073	1.43
312.447	1.49
312.821	1.47
313.196	1.44
313.57	1.35
313.944	1.41
314.317	1.47
314.691	1.44
315.065	1.55
315.439	1.56
315.813	1.62
316.187	1.47
316.56	1.58
316.934	1.53
317.308	1.48
317.681	1.56
318.055	1.53
318.428	1.55
318.802	1.54
319.175	1.49
319.549	1.51
319.922	1.32
320.295	1.35
320.669	1.78
321.042	1.51
321.415	1.62
321.788	1.57
322.162	1.48
322.535	1.57
322.908	1.5
323.281	1.52
323.654	1.73
324.027	1.58
324.4	1.55
324.773	1.51
325.145	1.58
325.518	1.56
325.891	1.43
326.264	1.67
326.636	1.43
327.009	1.42
327.382	1.46
327.754	1.57
328.127	1.36
328.499	1.51
328.872	1.58
329.244	1.45
329.616	1.51
329.989	1.4
330.361	1.55
330.733	1.4
331.106	1.43
331.478	1.59
331.85	1.5
332.222	1.49
332.594	1.56
332.966	1.47
333.338	1.72
333.71	1.58
334.082	1.58
334.454	1.44
334.826	1.53
335.197	1.43
335.569	1.62
335.941	1.42
336.312	1.53
336.684	1.41
337.056	1.62
337.427	1.63
337.799	1.51
338.17	1.51
338.542	1.55
338.913	1.56
339.284	1.6
339.656	1.53
340.027	1.66
340.398	1.57
340.769	1.52
341.141	1.55
341.512	1.53
341.883	1.58
342.254	1.56
342.625	1.59
342.996	1.48
343.367	1.42
343.738	1.49
344.108	1.43
344.479	1.58
344.85	1.46
345.221	1.45
345.591	1.33
345.962	1.64
346.333	1.37
346.703	1.33
347.074	1.44
347.444	1.26
347.815	1.45
348.185	1.38
348.556	1.36
348.926	1.29
349.296	1.4
349.666	1.39
350.037	1.34
350.407	1.17
350.777	1.37
351.147	1.38
351.517	1.37
351.887	1.35
352.257	1.38
352.627	1.3
352.997	1.28
353.367	1.36
353.737	1.38
354.106	1.4
354.476	1.3
354.846	1.31
355.216	1.36
355.585	1.43
355.955	1.36
356.324	1.31
356.694	1.29
357.063	1.28
357.433	1.25
357.802	1.25
358.171	1.31
358.541	1.16
358.91	1.24
359.279	1.21
359.648	1.2
360.017	1.16
360.387	1.15
360.756	1.06
361.125	1.08
361.494	1.14
361.863	1.07
362.231	1.07
362.6	1.03
362.969	1.06
363.338	1
363.707	1.03
364.075	1.03
364.444	0.95
364.813	0.96
365.181	0.94
365.55	0.96
365.918	0.93
366.287	0.89
366.655	0.88
367.024	0.87
367.392	0.92
367.76	0.87
368.128	0.84
368.497	0.87
368.865	0.82
369.233	0.82
369.601	0.8
369.969	0.77
370.337	0.79
370.705	0.75
371.073	0.77
371.441	0.76
371.809	0.73
372.177	0.75
372.544	0.73
372.912	0.73
373.28	0.72
373.647	0.74
374.015	0.73
374.383	0.72
374.75	0.75
375.118	0.71
375.485	0.69
375.853	0.72
376.22	0.69
376.587	0.67
376.955	0.71
377.322	0.67
377.689	0.66
378.056	0.66
378.423	0.66
378.79	0.7
379.157	0.67
379.524	0.67
379.891	0.68
380.258	0.68
380.625	0.65
380.992	0.66
381.359	0.65
381.726	0.69
382.092	0.67
382.459	0.67
382.826	0.67
383.192	0.66
383.559	0.65
383.925	0.64
384.292	0.67
384.658	0.67
385.025	0.65
385.391	0.67
385.757	0.67
386.123	0.69
386.49	0.66
386.856	0.68
387.222	0.69
387.588	0.65
387.954	0.68
388.32	0.7
388.686	0.68
389.052	0.67
389.418	0.67
389.784	0.66
390.15	0.66
390.515	0.66
390.881	0.67
391.247	0.65
391.613	0.69
391.978	0.67
392.344	0.67
392.709	0.68
393.075	0.68
393.44	0.67
393.806	0.66
394.171	0.67
394.536	0.66
394.902	0.66
395.267	0.65
395.632	0.65
395.997	0.66
396.362	0.64
396.727	0.66
397.092	0.64
397.457	0.66
397.822	0.65
398.187	0.63
398.552	0.63
398.917	0.6
399.282	0.62
399.646	0.59
400.011	0.61
400.376	0.64
400.74	0.59
401.105	0.61
401.47	0.61
401.834	0.59
402.199	0.6
402.563	0.59
402.927	0.57
403.292	0.59
403.656	0.59
404.02	0.57
404.384	0.6
404.749	0.58
405.113	0.57
405.477	0.56
405.841	0.55
406.205	0.53
406.569	0.56
406.933	0.54
407.296	0.54
407.66	0.54
408.024	0.52
408.388	0.53
408.752	0.51
409.115	0.52
409.479	0.49
409.842	0.51
410.206	0.51
410.569	0.49
410.933	0.51
411.296	0.47
411.66	0.49
412.023	0.46
412.386	0.49
412.749	0.47
413.113	0.48
413.476	0.47
413.839	0.47
414.202	0.46
414.565	0.45
414.928	0.46
415.291	0.46
415.654	0.47
416.017	0.45
416.38	0.45
416.742	0.44
417.105	0.44
417.468	0.45
417.83	0.44
418.193	0.47
418.556	0.44
418.918	0.43
419.281	0.45
419.643	0.45
420.005	0.43
420.368	0.45
420.73	0.43
421.092	0.45
421.455	0.43
421.817	0.41
422.179	0.42
422.541	0.42
422.903	0.42
423.265	0.42
423.627	0.4
423.989	0.41
424.351	0.41
424.713	0.42
425.075	0.41
425.436	0.4
425.798	0.4
426.16	0.41
426.521	0.41
426.883	0.43
427.245	0.39
427.606	0.4
427.967	0.4
428.329	0.4
428.69	0.41
429.052	0.41
429.413	0.42
429.774	0.38
430.135	0.38
430.497	0.38
430.858	0.37
431.219	0.37
431.58	0.37
431.941	0.38
432.302	0.39
432.663	0.36
433.024	0.38
433.384	0.39
433.745	0.37
434.106	0.35
434.467	0.38
434.827	0.38
435.188	0.38
435.548	0.39
435.909	0.37
436.269	0.39
436.63	0.36
436.99	0.36
437.351	0.36
437.711	0.37
438.071	0.36
438.431	0.36
438.792	0.36
439.152	0.36
439.512	0.35
439.872	0.35
440.232	0.36
440.592	0.37
440.952	0.35
441.312	0.35
441.671	0.35
442.031	0.35
442.391	0.33
442.751	0.35
443.11	0.34
443.47	0.33
443.83	0.34
444.189	0.33
444.549	0.33
444.908	0.34
445.267	0.34
445.627	0.33
445.986	0.31
446.345	0.31
446.705	0.3
447.064	0.31
447.423	0.31
447.782	0.32
448.141	0.31
448.5	0.3
448.859	0.32
449.218	0.29
449.577	0.32
449.936	0.31
450.295	0.3
450.653	0.31
451.012	0.31
451.371	0.31
451.729	0.3
452.088	0.3
452.447	0.31
452.805	0.31
453.163	0.31
453.522	0.3
453.88	0.29
454.239	0.29
454.597	0.29
454.955	0.29
455.313	0.27
455.671	0.28
456.029	0.28
456.388	0.27
456.746	0.28
457.104	0.27
457.461	0.26
457.819	0.26
458.177	0.26
458.535	0.25
458.893	0.25
459.25	0.25
459.608	0.25
459.966	0.24
460.323	0.24
460.681	0.24
461.038	0.25
461.396	0.24
461.753	0.24
462.111	0.24
462.468	0.24
462.825	0.22
463.182	0.23
463.54	0.22
463.897	0.22
464.254	0.22
464.611	0.23
464.968	0.22
465.325	0.21
465.682	0.22
466.039	0.21
466.395	0.21
466.752	0.21
467.109	0.21
467.466	0.21
467.822	0.21
468.179	0.21
468.535	0.21
468.892	0.21
469.248	0.19
469.605	0.19
469.961	0.19
470.318	0.2
470.674	0.19
471.03	0.19
471.386	0.19
471.743	0.18
472.099	0.18
472.455	0.18
472.811	0.18
473.167	0.18
473.523	0.17
473.879	0.18
474.235	0.17
474.59	0.16
474.946	0.17
475.302	0.17
475.657	0.16
476.013	0.17
476.369	0.15
476.724	0.17
477.08	0.17
477.435	0.16
477.791	0.16
478.146	0.16
478.501	0.16
478.857	0.16
479.212	0.16
479.567	0.15
479.922	0.14
480.277	0.14
480.632	0.14
480.987	0.14
481.342	0.14
481.697	0.14
482.052	0.14
482.407	0.13
482.762	0.13
483.116	0.13
483.471	0.12
483.826	0.12
484.18	0.13
484.535	0.12
484.89	0.12
485.244	0.12
485.598	0.13
485.953	0.12
486.307	0.12
486.661	0.12
487.016	0.11
487.37	0.12
487.724	0.12
488.078	0.12
488.432	0.12
488.786	0.11
489.14	0.11
489.494	0.11
489.848	0.11
490.202	0.11
490.556	0.11
490.91	0.1
491.263	0.11
491.617	0.11
491.971	0.11
492.324	0.11
492.678	0.11
493.031	0.11
493.385	0.1
493.738	0.1
494.091	0.1
494.445	0.1
494.798	0.1
495.151	0.1
495.504	0.1
495.857	0.1
496.21	0.1
496.564	0.1
496.916	0.1
497.269	0.09
497.622	0.1
497.975	0.1
498.328	0.1
498.681	0.1
499.033	0.09
499.386	0.1
499.739	0.09
500.091	0.09
500.444	0.09
500.796	0.09
501.149	0.08
501.501	0.09
501.854	0.09
502.206	0.08
502.558	0.09
502.91	0.09
503.263	0.09
503.615	0.09
503.967	0.09
504.319	0.09
504.671	0.08
505.023	0.08
505.375	0.08
505.726	0.08
506.078	0.09
506.43	0.08
506.782	0.08
507.133	0.09
507.485	0.09
507.837	0.1
508.188	0.09
508.54	0.09
508.891	0.09
509.243	0.09
509.594	0.09
509.945	0.09
510.296	0.08
510.648	0.09
510.999	0.08
511.35	0.09
511.701	0.08
512.052	0.09
512.403	0.09
512.754	0.09
513.105	0.08
513.456	0.08
513.807	0.08
514.157	0.09
514.508	0.09
514.859	0.08
515.209	0.09
515.56	0.09
515.91	0.08
516.261	0.09
516.611	0.08
516.962	0.08
517.312	0.08
517.662	0.09
518.013	0.08
518.363	0.09
518.713	0.08
519.063	0.1
519.413	0.09
519.763	0.08
520.113	0.09
520.463	0.09
520.813	0.1
521.163	0.1
521.512	0.09
521.862	0.09
522.212	0.08
522.562	0.09
522.911	0.09
523.261	0.09
523.61	0.09
523.96	0.09
524.309	0.09
524.658	0.09
525.008	0.09
525.357	0.09
525.706	0.09
526.056	0.08
526.405	0.09
526.754	0.09
527.103	0.08
527.452	0.09
527.801	0.09
528.15	0.09
528.499	0.09
528.847	0.09
529.196	0.09
529.545	0.1
529.893	0.1
530.242	0.09
530.591	0.1
530.939	0.1
531.288	0.09
531.636	0.1
531.985	0.09
532.333	0.1
532.681	0.1
533.029	0.1
533.378	0.1
533.726	0.09
534.074	0.1
534.422	0.09
534.77	0.09
535.118	0.09
535.466	0.09
535.814	0.09
536.162	0.1
536.509	0.1
536.857	0.09
537.205	0.1
537.552	0.1
537.9	0.09
538.248	0.09
538.595	0.1
538.943	0.1
539.29	0.1
539.637	0.1
539.985	0.09
540.332	0.09
540.679	0.09
541.026	0.09
541.373	0.1
541.721	0.09
542.068	0.09
542.415	0.09
542.762	0.1
543.108	0.08
543.455	0.09
543.802	0.09
544.149	0.09
544.496	0.09
544.842	0.09
545.189	0.08
545.535	0.09
545.882	0.09
546.228	0.08
546.575	0.08
546.921	0.08
547.267	0.07
547.614	0.08
547.96	0.08
548.306	0.08
548.652	0.08
548.998	0.09
549.344	0.08
549.69	0.09
550.036	0.09
550.382	0.09
550.728	0.09
551.074	0.09
551.42	0.09
551.765	0.09
552.111	0.09
552.457	0.09
552.802	0.09
553.148	0.09
553.493	0.09
553.839	0.09
554.184	0.09
554.529	0.08
554.875	0.1
555.22	0.1
555.565	0.1
555.91	0.09
556.255	0.1
556.6	0.09
556.945	0.08
557.29	0.09
557.635	0.09
557.98	0.09
558.325	0.09
558.67	0.09
559.014	0.1
559.359	0.09
559.704	0.09
560.048	0.09
560.393	0.09
560.737	0.07
561.082	0.09
561.426	0.08
561.77	0.09
562.115	0.08
562.459	0.09
562.803	0.08
563.147	0.09
563.491	0.09
563.835	0.09
564.179	0.09
564.523	0.08
564.867	0.08
565.211	0.08
565.555	0.09
565.899	0.09
566.242	0.09
566.586	0.08
566.93	0.09
567.273	0.09
567.617	0.09
567.96	0.09
568.304	0.1
568.647	0.09
568.99	0.1
569.334	0.1
569.677	0.09
570.02	0.09
570.363	0.1
570.706	0.09
571.049	0.1
571.392	0.1
571.735	0.09
572.078	0.1
572.421	0.1
572.764	0.09
573.106	0.09
573.449	0.09
573.792	0.09
574.134	0.1
574.477	0.1
574.819	0.09
575.162	0.09
575.504	0.08
575.847	0.09
576.189	0.09
576.531	0.09
576.873	0.08
577.215	0.09
577.558	0.09
577.9	0.08
578.242	0.09
578.584	0.09
578.926	0.09
579.267	0.08
579.609	0.09
579.951	0.09
580.293	0.08
580.634	0.09
580.976	0.1
581.318	0.09
581.659	0.08
582.001	0.09
582.342	0.09
582.683	0.1
583.025	0.08
583.366	0.09
583.707	0.09
584.049	0.09
584.39	0.09
584.731	0.09
585.072	0.09
585.413	0.1
585.754	0.09
586.095	0.09
586.435	0.09
586.776	0.1
587.117	0.09
587.458	0.09
587.798	0.09
588.139	0.09
588.48	0.09
588.82	0.09
589.161	0.08
589.501	0.08
589.841	0.08
590.182	0.09
590.522	0.08
590.862	0.09
591.202	0.09
591.542	0.09
591.882	0.08
592.222	0.09
592.562	0.08
592.902	0.08
593.242	0.09
593.582	0.09
593.922	0.08
594.261	0.08
594.601	0.09
594.941	0.09
595.28	0.09
595.62	0.09
595.959	0.08
596.299	0.09
596.638	0.08
596.977	0.09
597.317	0.1
597.656	0.09
597.995	0.09
598.334	0.1
598.673	0.09
599.012	0.09
599.351	0.1
599.69	0.09
600.029	0.1
600.368	0.1
600.707	0.09
601.046	0.1
601.384	0.1
601.723	0.1
602.061	0.09
602.4	0.1
602.738	0.1
603.077	0.09
603.415	0.08
603.754	0.1
604.092	0.09
604.43	0.08
604.768	0.09
605.107	0.09
605.445	0.09
605.783	0.09
606.121	0.08
606.459	0.09
606.796	0.09
607.134	0.09
607.472	0.08
607.81	0.09
608.148	0.09
608.485	0.09
608.823	0.09
609.16	0.09
609.498	0.09
609.835	0.09
610.173	0.09
610.51	0.09
610.847	0.09
611.185	0.09
611.522	0.09
611.859	0.1
612.196	0.09
612.533	0.09
612.87	0.1
613.207	0.09
613.544	0.09
613.881	0.1
614.217	0.1
614.554	0.09
614.891	0.1
615.228	0.1
615.564	0.1
615.901	0.11
616.237	0.1
616.574	0.1
616.91	0.1
617.246	0.1
617.583	0.1
617.919	0.1
618.255	0.1
618.591	0.1
618.927	0.1
619.263	0.11
619.599	0.1
619.935	0.1
620.271	0.1
620.607	0.11
620.943	0.09
621.279	0.11
621.614	0.1
621.95	0.1
622.286	0.09
622.621	0.09
622.957	0.1
623.292	0.09
623.627	0.09
623.963	0.1
624.298	0.09
624.633	0.09
624.968	0.09
625.304	0.09
625.639	0.09
625.974	0.09
626.309	0.09
626.644	0.09
626.979	0.1
627.313	0.09
627.648	0.09
627.983	0.1
628.318	0.09
628.652	0.09
628.987	0.09
629.321	0.09
629.656	0.09
629.99	0.08
630.325	0.09
630.659	0.08
630.993	0.09
631.327	0.09
631.662	0.07
631.996	0.08
632.33	0.08
632.664	0.09
632.998	0.08
633.332	0.08
633.666	0.08
633.999	0.08
634.333	0.08
634.667	0.08
635.001	0.07
635.334	0.08
635.668	0.07
636.001	0.08
636.335	0.07
636.668	0.07
637.001	0.07
637.335	0.08
637.668	0.08
638.001	0.07
638.334	0.07
638.668	0.08
639.001	0.08
639.334	0.07
639.667	0.08
639.999	0.07
640.332	0.08
640.665	0.07
640.998	0.08
641.331	0.08
641.663	0.07
641.996	0.08
642.328	0.08
642.661	0.08
642.993	0.09
643.326	0.08
643.658	0.08
643.99	0.08
644.323	0.08
644.655	0.08
644.987	0.09
645.319	0.09
645.651	0.09
645.983	0.08
646.315	0.08
646.647	0.09
646.979	0.09
647.31	0.09
647.642	0.08
647.974	0.08
648.305	0.09
648.637	0.09
648.968	0.08
649.3	0.09
649.631	0.09
649.963	0.08
650.294	0.09
650.625	0.08
650.957	0.08
651.288	0.08
651.619	0.09
651.95	0.08
652.281	0.09
652.612	0.08
652.943	0.08
653.274	0.09
653.604	0.08
653.935	0.08
654.266	0.09
654.596	0.08
654.927	0.08
655.258	0.09
655.588	0.09
655.918	0.09
656.249	0.07
656.579	0.08
656.909	0.08
657.24	0.08
657.57	0.09
657.9	0.09
658.23	0.08
658.56	0.09
658.89	0.08
659.22	0.08
659.55	0.08
659.88	0.09
660.209	0.08
660.539	0.09
660.869	0.08
661.198	0.08
661.528	0.08
661.857	0.08
662.187	0.08
662.516	0.08
662.846	0.08
663.175	0.08
663.504	0.08
663.833	0.08
664.163	0.08
664.492	0.08
664.821	0.08
665.15	0.08
665.479	0.08
665.807	0.07
666.136	0.08
666.465	0.08
666.794	0.08
667.122	0.08
667.451	0.08
667.78	0.08
668.108	0.09
668.437	0.08
668.765	0.08
669.093	0.09
669.422	0.09
669.75	0.08
670.078	0.08
670.406	0.09
670.734	0.09
671.062	0.08
671.39	0.09
671.718	0.09
672.046	0.09
672.374	0.08
672.702	0.09
673.029	0.07
673.357	0.09
673.685	0.09
674.012	0.09
674.34	0.08
674.667	0.09
674.995	0.09
675.322	0.09
675.649	0.08
675.977	0.08
676.304	0.08
676.631	0.09
676.958	0.09
677.285	0.08
677.612	0.07
677.939	0.08
678.266	0.08
678.593	0.08
678.92	0.08
679.246	0.08
679.573	0.08
679.9	0.07
680.226	0.08
680.553	0.07
680.879	0.08
681.206	0.09
681.532	0.08
681.858	0.08
682.184	0.08
682.511	0.08
682.837	0.08
683.163	0.09
683.489	0.09
683.815	0.08
684.141	0.08
684.467	0.08
684.793	0.08
685.118	0.08
685.444	0.08
685.77	0.08
686.095	0.09
686.421	0.08
686.746	0.08
687.072	0.07
687.397	0.08
687.723	0.08
688.048	0.08
688.373	0.08
688.698	0.08
689.023	0.07
689.349	0.08
689.674	0.07
689.999	0.07
690.323	0.06
690.648	0.07
690.973	0.07
691.298	0.07
691.623	0.07
691.947	0.07
692.272	0.07
692.596	0.07
692.921	0.07
693.245	0.07
693.57	0.08
693.894	0.08
694.218	0.08
694.543	0.07
694.867	0.08
695.191	0.07
695.515	0.07
695.839	0.08
696.163	0.08
696.487	0.07
696.811	0.08
697.135	0.07
697.458	0.08
697.782	0.07
698.106	0.07
698.429	0.07
698.753	0.08
699.076	0.08
699.4	0.07
699.723	0.08
700.046	0.07
700.37	0.08
700.693	0.08
701.016	0.07
701.339	0.07
701.662	0.08
701.985	0.08
702.308	0.07
702.631	0.07
702.954	0.07
703.277	0.08
703.599	0.07
703.922	0.06
704.245	0.07
704.567	0.06
704.89	0.06
705.212	0.06
705.535	0.06
705.857	0.06
706.179	0.06
706.502	0.06
706.824	0.06
707.146	0.06
707.468	0.06
707.79	0.06
708.112	0.06
708.434	0.06
708.756	0.06
709.078	0.06
709.399	0.06
709.721	0.06
710.043	0.07
710.364	0.06
710.686	0.07
711.007	0.06
711.329	0.07
711.65	0.07
711.972	0.07
712.293	0.07
712.614	0.07
712.935	0.07
713.256	0.07
713.577	0.08
713.898	0.07
714.219	0.07
714.54	0.06
714.861	0.07
715.182	0.07
715.503	0.07
715.823	0.07
716.144	0.06
716.464	0.06
716.785	0.07
717.105	0.07
717.426	0.07
717.746	0.07
718.066	0.06
718.387	0.06
718.707	0.06
719.027	0.06
719.347	0.06
719.667	0.07
719.987	0.06
720.307	0.05
720.627	0.06
720.947	0.06
721.266	0.06
721.586	0.04
721.906	0.06
722.225	0.05
722.545	0.06
722.864	0.05
723.184	0.05
723.503	0.06
723.823	0.05
724.142	0.05
724.461	0.05
