Data from 12-12-AQDScycling_Absorbance__922__00922.txt Node

Date: Tue Dec 12 14:47:14 EST 2023
User: kyuminlee
Spectrometer: FLMS00943
Trigger mode: 0
Integration Time (sec): 1.000000E-1
Scans to average: 1
Electric dark correction enabled: true
Nonlinearity correction enabled: false
Boxcar width: 0
XAxis mode: Wavelengths
Number of Pixels in Spectrum: 2048
>>>>>Begin Spectral Data<<<<<
179.651	0.08
180.037	0.08
180.424	0.08
180.81	-0
181.197	0.19
181.583	-0
181.97	0.02
182.356	-0
182.743	-1.3
183.129	-0.03
183.515	-0
183.901	-0
184.288	0.66
184.674	-0
185.06	-1.12
185.446	-0
185.832	-0
186.218	0.42
186.604	-0.34
186.99	0.22
187.376	0.63
187.762	-0.33
188.148	0.88
188.534	-0.07
188.92	-0.04
189.305	0.11
189.691	0.13
190.077	0.16
190.463	0.1
190.848	-0.02
191.234	0.05
191.619	0.13
192.005	0.02
192.391	0.12
192.776	0.22
193.161	0.31
193.547	0.01
193.932	0.06
194.318	0.08
194.703	0.06
195.088	0.17
195.473	0.22
195.859	0.18
196.244	0.18
196.629	0.14
197.014	0.06
197.399	0.23
197.784	0.12
198.169	0.21
198.554	0.29
198.939	0.2
199.324	0.08
199.709	0.12
200.094	0.05
200.478	0.14
200.863	0.15
201.248	0.24
201.633	0.18
202.017	0.1
202.402	0.35
202.787	0.15
203.171	0.33
203.556	0.18
203.94	0.13
204.325	0.31
204.709	0.21
205.093	0.11
205.478	0.13
205.862	0.12
206.246	0.16
206.631	0.15
207.015	0.11
207.399	0.2
207.783	0.16
208.167	0.16
208.551	0.31
208.935	0.13
209.319	0.18
209.703	0.08
210.087	0.22
210.471	0.1
210.855	0.25
211.239	0.2
211.623	0.23
212.007	0.18
212.39	0.26
212.774	0.12
213.158	0.08
213.541	0.27
213.925	0.29
214.309	0.29
214.692	0.29
215.076	0.26
215.459	0.12
215.842	0.23
216.226	0.31
216.609	0.29
216.993	0.14
217.376	0.37
217.759	0.25
218.142	0.33
218.525	0.33
218.909	0.38
219.292	0.29
219.675	0.53
220.058	0.56
220.441	0.36
220.824	0.5
221.207	0.72
221.59	0.47
221.973	0.56
222.355	0.65
222.738	0.84
223.121	0.49
223.504	0.6
223.886	0.64
224.269	0.66
224.652	0.67
225.034	0.89
225.417	0.8
225.799	0.8
226.182	0.85
226.564	0.85
226.947	0.81
227.329	0.74
227.711	1.01
228.094	0.9
228.476	0.9
228.858	0.84
229.24	0.86
229.623	1.01
230.005	0.73
230.387	0.88
230.769	0.84
231.151	0.97
231.533	0.98
231.915	1.02
232.297	1.06
232.679	0.92
233.061	0.93
233.442	1.1
233.824	0.99
234.206	1.24
234.588	1.01
234.969	0.96
235.351	0.91
235.733	1.02
236.114	1.21
236.496	0.97
236.877	1.01
237.259	1.06
237.64	1.03
238.022	1.03
238.403	0.94
238.784	1.08
239.165	1.03
239.547	1.23
239.928	1.13
240.309	0.96
240.69	1.08
241.071	1.08
241.452	1.16
241.834	1.02
242.215	1.04
242.595	1.07
242.976	1.18
243.357	1.21
243.738	1.13
244.119	1.2
244.5	1.09
244.881	1.23
245.261	1.15
245.642	1.2
246.023	1.17
246.403	1.18
246.784	1.25
247.164	1.42
247.545	1.24
247.925	1.38
248.306	1.22
248.686	1.38
249.067	1.26
249.447	1.47
249.827	1.66
250.207	1.41
250.588	1.19
250.968	1.42
251.348	1.33
251.728	1.43
252.108	1.42
252.488	1.38
252.868	1.31
253.248	1.25
253.628	1.45
254.008	1.38
254.388	1.26
254.768	1.38
255.147	1.43
255.527	1.38
255.907	1.26
256.287	1.38
256.666	1.39
257.046	1.64
257.425	1.41
257.805	1.29
258.184	1.3
258.564	1.42
258.943	1.41
259.323	1.49
259.702	1.59
260.081	1.43
260.461	1.43
260.84	1.5
261.219	1.78
261.598	1.43
261.977	1.4
262.356	1.4
262.736	1.53
263.115	1.57
263.494	1.38
263.873	1.34
264.251	1.52
264.63	1.59
265.009	1.39
265.388	1.41
265.767	1.42
266.145	1.42
266.524	1.35
266.903	1.4
267.281	1.4
267.66	1.43
268.039	1.43
268.417	1.39
268.796	1.35
269.174	1.42
269.552	1.27
269.931	1.55
270.309	1.39
270.687	1.54
271.066	1.61
271.444	1.55
271.822	1.45
272.2	1.43
272.578	1.38
272.956	1.36
273.334	1.35
273.712	1.48
274.09	1.44
274.468	1.25
274.846	1.21
275.224	1.31
275.602	1.34
275.98	1.44
276.357	1.47
276.735	1.47
277.113	1.38
277.49	1.42
277.868	1.37
278.246	1.48
278.623	1.25
279.001	1.35
279.378	1.43
279.756	1.51
280.133	1.51
280.51	1.43
280.888	1.49
281.265	1.34
281.642	1.49
282.019	1.57
282.396	1.65
282.773	1.39
283.151	1.52
283.528	1.46
283.905	1.35
284.282	1.62
284.659	1.73
285.035	1.31
285.412	1.42
285.789	1.58
286.166	1.61
286.543	1.52
286.919	1.38
287.296	1.34
287.673	1.55
288.049	1.48
288.426	1.49
288.802	1.52
289.179	1.49
289.555	1.65
289.932	1.53
290.308	1.35
290.684	1.42
291.061	1.45
291.437	1.43
291.813	1.29
292.189	1.32
292.565	1.36
292.942	1.39
293.318	1.52
293.694	1.53
294.07	1.43
294.446	1.32
294.822	1.62
295.197	1.45
295.573	1.42
295.949	1.5
296.325	1.54
296.701	1.46
297.076	1.78
297.452	1.51
297.828	1.43
298.203	1.57
298.579	1.44
298.954	1.43
299.33	1.49
299.705	1.46
300.081	1.5
300.456	1.59
300.831	1.53
301.206	1.37
301.582	1.61
301.957	1.49
302.332	1.6
302.707	1.38
303.082	1.49
303.457	1.54
303.832	1.46
304.207	1.34
304.582	1.49
304.957	1.54
305.332	1.5
305.707	1.54
306.082	1.53
306.456	1.6
306.831	1.59
307.206	1.55
307.58	1.57
307.955	1.44
308.33	1.47
308.704	1.53
309.079	1.47
309.453	1.71
309.828	1.55
310.202	1.51
310.576	1.41
310.951	1.51
311.325	1.5
311.699	1.41
312.073	1.4
312.447	1.41
312.821	1.4
313.196	1.56
313.57	1.4
313.944	1.41
314.317	1.41
314.691	1.52
315.065	1.53
315.439	1.49
315.813	1.52
316.187	1.5
316.56	1.5
316.934	1.55
317.308	1.47
317.681	1.55
318.055	1.56
318.428	1.59
318.802	1.58
319.175	1.73
319.549	1.59
319.922	1.45
320.295	1.39
320.669	1.63
321.042	1.53
321.415	1.72
321.788	1.54
322.162	1.48
322.535	1.64
322.908	1.61
323.281	1.57
323.654	1.52
324.027	1.46
324.4	1.72
324.773	1.7
325.145	1.58
325.518	1.4
325.891	1.43
326.264	1.65
326.636	1.56
327.009	1.48
327.382	1.46
327.754	1.48
328.127	1.56
328.499	1.43
328.872	1.43
329.244	1.63
329.616	1.55
329.989	1.39
330.361	1.48
330.733	1.47
331.106	1.49
331.478	1.55
331.85	1.59
332.222	1.36
332.594	1.5
332.966	1.5
333.338	1.57
333.71	1.57
334.082	1.74
334.454	1.39
334.826	1.52
335.197	1.6
335.569	1.55
335.941	1.39
336.312	1.5
336.684	1.42
337.056	1.45
337.427	1.63
337.799	1.68
338.17	1.54
338.542	1.52
338.913	1.56
339.284	1.53
339.656	1.4
340.027	1.53
340.398	1.53
340.769	1.53
341.141	1.63
341.512	1.59
341.883	1.67
342.254	1.69
342.625	1.58
342.996	1.57
343.367	1.51
343.738	1.59
344.108	1.24
344.479	1.54
344.85	1.49
345.221	1.57
345.591	1.39
345.962	1.55
346.333	1.5
346.703	1.3
347.074	1.39
347.444	1.28
347.815	1.46
348.185	1.47
348.556	1.33
348.926	1.42
349.296	1.39
349.666	1.4
350.037	1.27
350.407	1.26
350.777	1.4
351.147	1.5
351.517	1.46
351.887	1.37
352.257	1.56
352.627	1.34
352.997	1.32
353.367	1.37
353.737	1.39
354.106	1.41
354.476	1.31
354.846	1.38
355.216	1.37
355.585	1.34
355.955	1.34
356.324	1.41
356.694	1.32
357.063	1.32
357.433	1.34
357.802	1.32
358.171	1.34
358.541	1.36
358.91	1.32
359.279	1.25
359.648	1.25
360.017	1.31
360.387	1.33
360.756	1.2
361.125	1.24
361.494	1.26
361.863	1.27
362.231	1.26
362.6	1.21
362.969	1.24
363.338	1.15
363.707	1.22
364.075	1.22
364.444	1.12
364.813	1.22
365.181	1.2
365.55	1.15
365.918	1.2
366.287	1.14
366.655	1.21
367.024	1.2
367.392	1.15
367.76	1.08
368.128	1.13
368.497	1.15
368.865	1.12
369.233	1.13
369.601	1.1
369.969	1.09
370.337	1.11
370.705	1.09
371.073	1.09
371.441	1.13
371.809	1.05
372.177	1.15
372.544	1.08
372.912	1.11
373.28	1.11
373.647	1.12
374.015	1.16
374.383	1.18
374.75	1.21
375.118	1.11
375.485	1.13
375.853	1.15
376.22	1.15
376.587	1.09
376.955	1.15
377.322	1.12
377.689	1.07
378.056	1.09
378.423	1.08
378.79	1.15
379.157	1.19
379.524	1.15
379.891	1.05
380.258	1.13
380.625	1.12
380.992	1.09
381.359	1.13
381.726	1.23
382.092	1.13
382.459	1.16
382.826	1.18
383.192	1.2
383.559	1.22
383.925	1.2
384.292	1.21
384.658	1.2
385.025	1.27
385.391	1.24
385.757	1.25
386.123	1.22
386.49	1.23
386.856	1.24
387.222	1.25
387.588	1.19
387.954	1.3
388.32	1.28
388.686	1.18
389.052	1.28
389.418	1.27
389.784	1.26
390.15	1.27
390.515	1.16
390.881	1.36
391.247	1.31
391.613	1.34
391.978	1.2
392.344	1.34
392.709	1.25
393.075	1.29
393.44	1.3
393.806	1.25
394.171	1.25
394.536	1.22
394.902	1.22
395.267	1.16
395.632	1.18
395.997	1.2
396.362	1.29
396.727	1.26
397.092	1.26
397.457	1.23
397.822	1.18
398.187	1.23
398.552	1.23
398.917	1.17
399.282	1.16
399.646	1.21
400.011	1.22
400.376	1.14
400.74	1.17
401.105	1.17
401.47	1.2
401.834	1.12
402.199	1.1
402.563	1.16
402.927	1.14
403.292	1.18
403.656	1.11
404.02	1.12
404.384	1.14
404.749	1.14
405.113	1.09
405.477	1.11
405.841	1.05
406.205	1.11
406.569	1.06
406.933	1.03
407.296	1.07
407.66	1.05
408.024	1.04
408.388	1.06
408.752	0.99
409.115	1.01
409.479	0.98
409.842	1.03
410.206	0.99
410.569	0.98
410.933	0.98
411.296	0.99
411.66	1.01
412.023	0.93
412.386	1.01
412.749	0.9
413.113	0.97
413.476	0.9
413.839	0.93
414.202	0.92
414.565	0.9
414.928	0.91
415.291	0.86
415.654	0.93
416.017	0.9
416.38	0.89
416.742	0.87
417.105	0.89
417.468	0.91
417.83	0.88
418.193	0.88
418.556	0.9
418.918	0.85
419.281	0.87
419.643	0.9
420.005	0.89
420.368	0.87
420.73	0.87
421.092	0.88
421.455	0.87
421.817	0.85
422.179	0.88
422.541	0.86
422.903	0.91
423.265	0.85
423.627	0.84
423.989	0.85
424.351	0.82
424.713	0.85
425.075	0.82
425.436	0.82
425.798	0.81
426.16	0.83
426.521	0.81
426.883	0.84
427.245	0.82
427.606	0.79
427.967	0.79
428.329	0.8
428.69	0.83
429.052	0.81
429.413	0.8
429.774	0.81
430.135	0.81
430.497	0.81
430.858	0.78
431.219	0.78
431.58	0.76
431.941	0.79
432.302	0.8
432.663	0.77
433.024	0.81
433.384	0.78
433.745	0.77
434.106	0.77
434.467	0.77
434.827	0.75
435.188	0.75
435.548	0.76
435.909	0.75
436.269	0.77
436.63	0.74
436.99	0.76
437.351	0.74
437.711	0.75
438.071	0.72
438.431	0.74
438.792	0.72
439.152	0.7
439.512	0.75
439.872	0.71
440.232	0.72
440.592	0.74
440.952	0.72
441.312	0.71
441.671	0.7
442.031	0.7
442.391	0.69
442.751	0.71
443.11	0.69
443.47	0.69
443.83	0.68
444.189	0.66
444.549	0.67
444.908	0.67
445.267	0.67
445.627	0.66
445.986	0.64
446.345	0.63
446.705	0.65
447.064	0.64
447.423	0.64
447.782	0.63
448.141	0.62
448.5	0.61
448.859	0.61
449.218	0.6
449.577	0.63
449.936	0.63
450.295	0.6
450.653	0.61
451.012	0.62
451.371	0.62
451.729	0.6
452.088	0.61
452.447	0.58
452.805	0.6
453.163	0.6
453.522	0.6
453.88	0.57
454.239	0.57
454.597	0.57
454.955	0.56
455.313	0.56
455.671	0.56
456.029	0.56
456.388	0.54
456.746	0.54
457.104	0.53
457.461	0.53
457.819	0.53
458.177	0.51
458.535	0.5
458.893	0.51
459.25	0.51
459.608	0.49
459.966	0.49
460.323	0.48
460.681	0.48
461.038	0.48
461.396	0.47
461.753	0.47
462.111	0.46
462.468	0.45
462.825	0.44
463.182	0.45
463.54	0.44
463.897	0.43
464.254	0.44
464.611	0.43
464.968	0.42
465.325	0.42
465.682	0.41
466.039	0.42
466.395	0.41
466.752	0.4
467.109	0.4
467.466	0.4
467.822	0.39
468.179	0.39
468.535	0.38
468.892	0.38
469.248	0.37
469.605	0.37
469.961	0.38
470.318	0.37
470.674	0.37
471.03	0.35
471.386	0.36
471.743	0.34
472.099	0.34
472.455	0.33
472.811	0.33
473.167	0.34
473.523	0.32
473.879	0.33
474.235	0.31
474.59	0.31
474.946	0.31
475.302	0.31
475.657	0.31
476.013	0.3
476.369	0.3
476.724	0.3
477.08	0.3
477.435	0.29
477.791	0.29
478.146	0.29
478.501	0.28
478.857	0.28
479.212	0.28
479.567	0.27
479.922	0.26
480.277	0.26
480.632	0.26
480.987	0.26
481.342	0.25
481.697	0.24
482.052	0.24
482.407	0.25
482.762	0.24
483.116	0.23
483.471	0.23
483.826	0.22
484.18	0.23
484.535	0.22
484.89	0.22
485.244	0.22
485.598	0.22
485.953	0.22
486.307	0.21
486.661	0.21
487.016	0.21
487.37	0.21
487.724	0.21
488.078	0.2
488.432	0.21
488.786	0.2
489.14	0.2
489.494	0.19
489.848	0.19
490.202	0.18
490.556	0.19
490.91	0.19
491.263	0.18
491.617	0.18
491.971	0.19
492.324	0.18
492.678	0.18
493.031	0.18
493.385	0.18
493.738	0.17
494.091	0.18
494.445	0.18
494.798	0.17
495.151	0.17
495.504	0.17
495.857	0.17
496.21	0.17
496.564	0.17
496.916	0.18
497.269	0.16
497.622	0.17
497.975	0.17
498.328	0.16
498.681	0.16
499.033	0.16
499.386	0.16
499.739	0.15
500.091	0.16
500.444	0.15
500.796	0.15
501.149	0.15
501.501	0.15
501.854	0.15
502.206	0.15
502.558	0.15
502.91	0.15
503.263	0.15
503.615	0.15
503.967	0.15
504.319	0.15
504.671	0.14
505.023	0.15
505.375	0.15
505.726	0.14
506.078	0.15
506.43	0.14
506.782	0.15
507.133	0.15
507.485	0.15
507.837	0.16
508.188	0.15
508.54	0.15
508.891	0.16
509.243	0.14
509.594	0.15
509.945	0.15
510.296	0.14
510.648	0.15
510.999	0.15
511.35	0.15
511.701	0.15
512.052	0.14
512.403	0.15
512.754	0.14
513.105	0.14
513.456	0.14
513.807	0.14
514.157	0.15
514.508	0.14
514.859	0.14
515.209	0.15
515.56	0.15
515.91	0.14
516.261	0.15
516.611	0.14
516.962	0.14
517.312	0.15
517.662	0.14
518.013	0.14
518.363	0.15
518.713	0.16
519.063	0.15
519.413	0.14
519.763	0.15
520.113	0.14
520.463	0.15
520.813	0.15
521.163	0.15
521.512	0.14
521.862	0.15
522.212	0.15
522.562	0.15
522.911	0.15
523.261	0.14
523.61	0.14
523.96	0.15
524.309	0.16
524.658	0.15
525.008	0.14
525.357	0.15
525.706	0.15
526.056	0.14
526.405	0.15
526.754	0.14
527.103	0.14
527.452	0.14
527.801	0.15
528.15	0.15
528.499	0.15
528.847	0.15
529.196	0.16
529.545	0.16
529.893	0.16
530.242	0.16
530.591	0.15
530.939	0.16
531.288	0.16
531.636	0.16
531.985	0.16
532.333	0.16
532.681	0.16
533.029	0.16
533.378	0.16
533.726	0.16
534.074	0.16
534.422	0.15
534.77	0.16
535.118	0.16
535.466	0.16
535.814	0.15
536.162	0.15
536.509	0.16
536.857	0.16
537.205	0.16
537.552	0.16
537.9	0.16
538.248	0.15
538.595	0.16
538.943	0.16
539.29	0.16
539.637	0.15
539.985	0.16
540.332	0.16
540.679	0.16
541.026	0.15
541.373	0.17
541.721	0.15
542.068	0.16
542.415	0.16
542.762	0.15
543.108	0.15
543.455	0.15
543.802	0.15
544.149	0.15
544.496	0.16
544.842	0.15
545.189	0.15
545.535	0.15
545.882	0.15
546.228	0.14
546.575	0.14
546.921	0.15
547.267	0.15
547.614	0.14
547.96	0.15
548.306	0.15
548.652	0.15
548.998	0.16
549.344	0.16
549.69	0.15
550.036	0.14
550.382	0.15
550.728	0.15
551.074	0.16
551.42	0.16
551.765	0.15
552.111	0.16
552.457	0.16
552.802	0.16
553.148	0.16
553.493	0.15
553.839	0.15
554.184	0.15
554.529	0.15
554.875	0.17
555.22	0.16
555.565	0.15
555.91	0.15
556.255	0.17
556.6	0.17
556.945	0.15
557.29	0.16
557.635	0.16
557.98	0.16
558.325	0.16
558.67	0.16
559.014	0.16
559.359	0.16
559.704	0.16
560.048	0.15
560.393	0.16
560.737	0.15
561.082	0.16
561.426	0.14
561.77	0.15
562.115	0.14
562.459	0.15
562.803	0.15
563.147	0.15
563.491	0.16
563.835	0.16
564.179	0.16
564.523	0.16
564.867	0.15
565.211	0.16
565.555	0.16
565.899	0.16
566.242	0.16
566.586	0.15
566.93	0.16
567.273	0.17
567.617	0.16
567.96	0.16
568.304	0.16
568.647	0.16
568.99	0.17
569.334	0.17
569.677	0.16
570.02	0.17
570.363	0.16
570.706	0.16
571.049	0.16
571.392	0.17
571.735	0.16
572.078	0.17
572.421	0.18
572.764	0.17
573.106	0.16
573.449	0.16
573.792	0.16
574.134	0.16
574.477	0.17
574.819	0.16
575.162	0.16
575.504	0.15
575.847	0.16
576.189	0.16
576.531	0.16
576.873	0.16
577.215	0.15
577.558	0.16
577.9	0.15
578.242	0.15
578.584	0.16
578.926	0.15
579.267	0.16
579.609	0.16
579.951	0.15
580.293	0.16
580.634	0.17
580.976	0.16
581.318	0.16
581.659	0.16
582.001	0.16
582.342	0.16
582.683	0.16
583.025	0.15
583.366	0.16
583.707	0.16
584.049	0.16
584.39	0.15
584.731	0.16
585.072	0.16
585.413	0.16
585.754	0.16
586.095	0.16
586.435	0.16
586.776	0.16
587.117	0.15
587.458	0.16
587.798	0.16
588.139	0.16
588.48	0.15
588.82	0.15
589.161	0.15
589.501	0.15
589.841	0.15
590.182	0.15
590.522	0.15
590.862	0.16
591.202	0.15
591.542	0.15
591.882	0.16
592.222	0.15
592.562	0.15
592.902	0.16
593.242	0.15
593.582	0.16
593.922	0.15
594.261	0.16
594.601	0.15
594.941	0.16
595.28	0.16
595.62	0.15
595.959	0.16
596.299	0.15
596.638	0.16
596.977	0.15
597.317	0.16
597.656	0.16
597.995	0.16
598.334	0.16
598.673	0.16
599.012	0.16
599.351	0.16
599.69	0.16
600.029	0.17
600.368	0.16
600.707	0.17
601.046	0.16
601.384	0.17
601.723	0.16
602.061	0.16
602.4	0.17
602.738	0.16
603.077	0.16
603.415	0.16
603.754	0.15
604.092	0.16
604.43	0.16
604.768	0.16
605.107	0.16
605.445	0.15
605.783	0.16
606.121	0.15
606.459	0.16
606.796	0.16
607.134	0.15
607.472	0.15
607.81	0.16
608.148	0.15
608.485	0.16
608.823	0.15
609.16	0.15
609.498	0.16
609.835	0.15
610.173	0.15
610.51	0.16
610.847	0.15
611.185	0.15
611.522	0.16
611.859	0.16
612.196	0.16
612.533	0.16
612.87	0.16
613.207	0.16
613.544	0.16
613.881	0.16
614.217	0.16
614.554	0.16
614.891	0.16
615.228	0.16
615.564	0.16
615.901	0.16
616.237	0.16
616.574	0.17
616.91	0.16
617.246	0.16
617.583	0.16
617.919	0.16
618.255	0.16
618.591	0.16
618.927	0.16
619.263	0.18
619.599	0.17
619.935	0.17
620.271	0.17
620.607	0.17
620.943	0.16
621.279	0.17
621.614	0.16
621.95	0.16
622.286	0.16
622.621	0.16
622.957	0.16
623.292	0.15
623.627	0.15
623.963	0.16
624.298	0.16
624.633	0.15
624.968	0.15
625.304	0.16
625.639	0.15
625.974	0.15
626.309	0.15
626.644	0.15
626.979	0.16
627.313	0.15
627.648	0.16
627.983	0.16
628.318	0.15
628.652	0.15
628.987	0.15
629.321	0.15
629.656	0.14
629.99	0.14
630.325	0.15
630.659	0.14
630.993	0.14
631.327	0.15
631.662	0.13
631.996	0.14
632.33	0.14
632.664	0.15
632.998	0.14
633.332	0.13
633.666	0.14
633.999	0.14
634.333	0.13
634.667	0.13
635.001	0.13
635.334	0.13
635.668	0.13
636.001	0.14
636.335	0.14
636.668	0.13
637.001	0.13
637.335	0.13
637.668	0.13
638.001	0.13
638.334	0.13
638.668	0.14
639.001	0.13
639.334	0.13
639.667	0.13
639.999	0.13
640.332	0.13
640.665	0.13
640.998	0.14
641.331	0.14
641.663	0.13
641.996	0.13
642.328	0.14
642.661	0.14
642.993	0.13
643.326	0.14
643.658	0.13
643.99	0.13
644.323	0.12
644.655	0.15
644.987	0.13
645.319	0.14
645.651	0.14
645.983	0.14
646.315	0.14
646.647	0.15
646.979	0.15
647.31	0.15
647.642	0.14
647.974	0.14
648.305	0.15
648.637	0.14
648.968	0.15
649.3	0.13
649.631	0.14
649.963	0.14
650.294	0.14
650.625	0.13
650.957	0.14
651.288	0.14
651.619	0.14
651.95	0.14
652.281	0.14
652.612	0.14
652.943	0.14
653.274	0.14
653.604	0.14
653.935	0.14
654.266	0.13
654.596	0.13
654.927	0.13
655.258	0.14
655.588	0.15
655.918	0.14
656.249	0.12
656.579	0.14
656.909	0.14
657.24	0.13
657.57	0.14
657.9	0.13
658.23	0.13
658.56	0.14
658.89	0.13
659.22	0.13
659.55	0.13
659.88	0.13
660.209	0.13
660.539	0.14
660.869	0.13
661.198	0.13
661.528	0.13
661.857	0.14
662.187	0.13
662.516	0.13
662.846	0.13
663.175	0.13
663.504	0.13
663.833	0.13
664.163	0.13
664.492	0.13
664.821	0.13
665.15	0.13
665.479	0.13
665.807	0.12
666.136	0.13
666.465	0.12
666.794	0.13
667.122	0.13
667.451	0.12
667.78	0.13
668.108	0.13
668.437	0.13
668.765	0.13
669.093	0.13
669.422	0.13
669.75	0.13
670.078	0.13
670.406	0.13
670.734	0.13
671.062	0.13
671.39	0.13
671.718	0.13
672.046	0.14
672.374	0.13
672.702	0.13
673.029	0.13
673.357	0.13
673.685	0.13
674.012	0.13
674.34	0.13
674.667	0.13
674.995	0.13
675.322	0.13
675.649	0.12
675.977	0.13
676.304	0.13
676.631	0.13
676.958	0.12
677.285	0.12
677.612	0.12
677.939	0.12
678.266	0.13
678.593	0.12
678.92	0.12
679.246	0.12
679.573	0.13
679.9	0.11
680.226	0.12
680.553	0.11
680.879	0.12
681.206	0.13
681.532	0.12
681.858	0.12
682.184	0.13
682.511	0.12
682.837	0.12
683.163	0.13
683.489	0.12
683.815	0.12
684.141	0.13
684.467	0.12
684.793	0.12
685.118	0.12
685.444	0.13
685.77	0.12
686.095	0.12
686.421	0.12
686.746	0.12
687.072	0.12
687.397	0.12
687.723	0.11
688.048	0.12
688.373	0.11
688.698	0.12
689.023	0.11
689.349	0.11
689.674	0.11
689.999	0.11
690.323	0.1
690.648	0.1
690.973	0.1
691.298	0.11
691.623	0.1
691.947	0.1
692.272	0.11
692.596	0.11
692.921	0.11
693.245	0.1
693.57	0.11
693.894	0.11
694.218	0.11
694.543	0.11
694.867	0.11
695.191	0.11
695.515	0.12
695.839	0.1
696.163	0.11
696.487	0.11
696.811	0.11
697.135	0.11
697.458	0.11
697.782	0.11
698.106	0.11
698.429	0.11
698.753	0.11
699.076	0.11
699.4	0.11
699.723	0.11
700.046	0.1
700.37	0.11
700.693	0.11
701.016	0.1
701.339	0.11
701.662	0.11
701.985	0.11
702.308	0.11
702.631	0.11
702.954	0.11
703.277	0.1
703.599	0.1
703.922	0.1
704.245	0.09
704.567	0.09
704.89	0.1
705.212	0.1
705.535	0.1
705.857	0.09
706.179	0.1
706.502	0.1
706.824	0.09
707.146	0.1
707.468	0.09
707.79	0.09
708.112	0.1
708.434	0.09
708.756	0.1
709.078	0.09
709.399	0.1
709.721	0.09
710.043	0.09
710.364	0.09
710.686	0.1
711.007	0.09
711.329	0.1
711.65	0.1
711.972	0.1
712.293	0.1
712.614	0.1
712.935	0.1
713.256	0.1
713.577	0.11
713.898	0.11
714.219	0.1
714.54	0.1
714.861	0.09
715.182	0.1
715.503	0.09
715.823	0.1
716.144	0.09
716.464	0.1
716.785	0.1
717.105	0.1
717.426	0.09
717.746	0.09
718.066	0.09
718.387	0.09
718.707	0.09
719.027	0.1
719.347	0.09
719.667	0.09
719.987	0.08
720.307	0.08
720.627	0.08
720.947	0.08
721.266	0.09
721.586	0.08
721.906	0.08
722.225	0.07
722.545	0.08
722.864	0.07
723.184	0.09
723.503	0.08
