Data from 12-12-AQDScycling_Absorbance__669__00669.txt Node

Date: Tue Dec 12 13:43:59 EST 2023
User: kyuminlee
Spectrometer: FLMS00943
Trigger mode: 0
Integration Time (sec): 1.000000E-1
Scans to average: 1
Electric dark correction enabled: true
Nonlinearity correction enabled: false
Boxcar width: 0
XAxis mode: Wavelengths
Number of Pixels in Spectrum: 2048
>>>>>Begin Spectral Data<<<<<
179.651	-0
180.037	-0
180.424	-0
180.81	-0.63
181.197	0.25
181.583	-0
181.97	-0.27
182.356	-0
182.743	-1.02
183.129	0.69
183.515	-0
183.901	-2.57
184.288	0.21
184.674	-0
185.06	0.22
185.446	-0
185.832	-0.6
186.218	0.33
186.604	-0
186.99	-0
187.376	-0
187.762	-0
188.148	0.63
188.534	-0.27
188.92	0.13
189.305	0.29
189.691	0.24
190.077	0.19
190.463	0.16
190.848	0.04
191.234	0.18
191.619	0.11
192.005	0.27
192.391	0.2
192.776	0.15
193.161	0.23
193.547	0.24
193.932	0
194.318	0.03
194.703	0.42
195.088	0.24
195.473	0.16
195.859	0.23
196.244	0.09
196.629	0.22
197.014	0.16
197.399	0.17
197.784	0.27
198.169	0.22
198.554	0.29
198.939	0.11
199.324	0.07
199.709	0.09
200.094	0.03
200.478	0.18
200.863	0.22
201.248	0.3
201.633	0.32
202.017	0.17
202.402	0.21
202.787	0.15
203.171	0.11
203.556	0.38
203.94	0.24
204.325	0.29
204.709	0.16
205.093	0.09
205.478	0.16
205.862	0.16
206.246	0.18
206.631	0.22
207.015	0.14
207.399	0.3
207.783	0.15
208.167	0.21
208.551	0.17
208.935	0.16
209.319	0.21
209.703	0.26
210.087	0.21
210.471	0.07
210.855	0.1
211.239	0.28
211.623	0.57
212.007	0.36
212.39	0.23
212.774	0.31
213.158	0.06
213.541	0.29
213.925	0.18
214.309	0.29
214.692	0.22
215.076	0.38
215.459	0.22
215.842	0.22
216.226	0.27
216.609	0.34
216.993	0.12
217.376	0.5
217.759	0.18
218.142	0.45
218.525	0.42
218.909	0.53
219.292	0.45
219.675	0.35
220.058	0.45
220.441	0.65
220.824	0.63
221.207	0.62
221.59	0.53
221.973	0.5
222.355	0.89
222.738	0.7
223.121	0.6
223.504	0.58
223.886	0.81
224.269	0.77
224.652	0.6
225.034	0.86
225.417	0.74
225.799	0.93
226.182	0.87
226.564	0.92
226.947	0.84
227.329	0.92
227.711	1.08
228.094	1.08
228.476	0.95
228.858	0.87
229.24	0.91
229.623	0.83
230.005	0.81
230.387	0.93
230.769	0.91
231.151	1.05
231.533	1.09
231.915	0.91
232.297	1.12
232.679	0.97
233.061	1.23
233.442	1.18
233.824	0.97
234.206	1.1
234.588	1.02
234.969	1.12
235.351	0.95
235.733	1.32
236.114	1.28
236.496	1.15
236.877	1.06
237.259	0.97
237.64	1.2
238.022	1.22
238.403	1.05
238.784	1.11
239.165	1.05
239.547	1.06
239.928	1.19
240.309	1.14
240.69	1.05
241.071	1.08
241.452	1.16
241.834	1.02
242.215	1.17
242.595	1.15
242.976	1.09
243.357	1.22
243.738	1.06
244.119	1.24
244.5	1.2
244.881	1.21
245.261	1.2
245.642	1.22
246.023	1.12
246.403	1.14
246.784	1.35
247.164	1.35
247.545	1.28
247.925	1.27
248.306	1.24
248.686	1.29
249.067	1.32
249.447	1.38
249.827	1.65
250.207	1.55
250.588	1.33
250.968	1.48
251.348	1.35
251.728	1.47
252.108	1.51
252.488	1.27
252.868	1.35
253.248	1.35
253.628	1.39
254.008	1.6
254.388	1.36
254.768	1.61
255.147	1.39
255.527	1.5
255.907	1.41
256.287	1.33
256.666	1.41
257.046	1.42
257.425	1.64
257.805	1.35
258.184	1.39
258.564	1.4
258.943	1.44
259.323	1.45
259.702	1.5
260.081	1.45
260.461	1.62
260.84	1.52
261.219	1.76
261.598	1.42
261.977	1.49
262.356	1.53
262.736	1.5
263.115	1.7
263.494	1.49
263.873	1.64
264.251	1.57
264.63	1.72
265.009	1.39
265.388	1.43
265.767	1.33
266.145	1.31
266.524	1.42
266.903	1.4
267.281	1.44
267.66	1.6
268.039	1.64
268.417	1.44
268.796	1.38
269.174	1.44
269.552	1.4
269.931	1.43
270.309	1.51
270.687	1.73
271.066	1.75
271.444	1.48
271.822	1.65
272.2	1.47
272.578	1.45
272.956	1.6
273.334	1.51
273.712	1.46
274.09	1.5
274.468	1.61
274.846	1.24
275.224	1.38
275.602	1.43
275.98	1.55
276.357	1.46
276.735	1.38
277.113	1.48
277.49	1.35
277.868	1.26
278.246	1.5
278.623	1.35
279.001	1.28
279.378	1.42
279.756	1.5
280.133	1.62
280.51	1.43
280.888	1.6
281.265	1.34
281.642	1.55
282.019	1.57
282.396	1.57
282.773	1.46
283.151	1.61
283.528	1.41
283.905	1.53
284.282	1.64
284.659	1.61
285.035	1.47
285.412	1.38
285.789	1.58
286.166	1.51
286.543	1.35
286.919	1.67
287.296	1.47
287.673	1.57
288.049	1.54
288.426	1.6
288.802	1.57
289.179	1.43
289.555	1.48
289.932	1.53
290.308	1.35
290.684	1.42
291.061	1.39
291.437	1.81
291.813	1.45
292.189	1.37
292.565	1.3
292.942	1.49
293.318	1.63
293.694	1.39
294.07	1.44
294.446	1.33
294.822	1.46
295.197	1.53
295.573	1.53
295.949	1.44
296.325	1.52
296.701	1.51
297.076	1.6
297.452	1.72
297.828	1.41
298.203	1.67
298.579	1.5
298.954	1.53
299.33	1.32
299.705	1.63
300.081	1.46
300.456	1.61
300.831	1.5
301.206	1.46
301.582	1.57
301.957	1.47
302.332	1.59
302.707	1.42
303.082	1.45
303.457	1.62
303.832	1.49
304.207	1.53
304.582	1.42
304.957	1.54
305.332	1.61
305.707	1.55
306.082	1.35
306.456	1.53
306.831	1.46
307.206	1.63
307.58	1.44
307.955	1.38
308.33	1.38
308.704	1.48
309.079	1.56
309.453	1.59
309.828	1.49
310.202	1.42
310.576	1.39
310.951	1.48
311.325	1.56
311.699	1.38
312.073	1.38
312.447	1.45
312.821	1.48
313.196	1.47
313.57	1.48
313.944	1.42
314.317	1.49
314.691	1.44
315.065	1.61
315.439	1.48
315.813	1.49
316.187	1.51
316.56	1.65
316.934	1.5
317.308	1.6
317.681	1.58
318.055	1.6
318.428	1.49
318.802	1.52
319.175	1.51
319.549	1.55
319.922	1.36
320.295	1.35
320.669	1.7
321.042	1.5
321.415	1.92
321.788	1.55
322.162	1.42
322.535	1.62
322.908	1.64
323.281	1.63
323.654	1.67
324.027	1.4
324.4	1.58
324.773	1.53
325.145	1.63
325.518	1.45
325.891	1.4
326.264	1.63
326.636	1.41
327.009	1.49
327.382	1.44
327.754	1.62
328.127	1.48
328.499	1.6
328.872	1.55
329.244	1.57
329.616	1.47
329.989	1.52
330.361	1.47
330.733	1.46
331.106	1.34
331.478	1.63
331.85	1.44
332.222	1.41
332.594	1.72
332.966	1.48
333.338	1.74
333.71	1.75
334.082	1.59
334.454	1.56
334.826	1.51
335.197	1.61
335.569	1.43
335.941	1.5
336.312	1.59
336.684	1.53
337.056	1.57
337.427	1.72
337.799	1.64
338.17	1.63
338.542	1.46
338.913	1.55
339.284	1.55
339.656	1.44
340.027	1.5
340.398	1.69
340.769	1.56
341.141	1.74
341.512	1.56
341.883	1.59
342.254	1.63
342.625	1.53
342.996	1.51
343.367	1.49
343.738	1.51
344.108	1.48
344.479	1.9
344.85	1.45
345.221	1.67
345.591	1.42
345.962	1.44
346.333	1.48
346.703	1.33
347.074	1.41
347.444	1.3
347.815	1.36
348.185	1.33
348.556	1.37
348.926	1.42
349.296	1.42
349.666	1.47
350.037	1.32
350.407	1.28
350.777	1.43
351.147	1.39
351.517	1.41
351.887	1.42
352.257	1.44
352.627	1.34
352.997	1.36
353.367	1.39
353.737	1.41
354.106	1.41
354.476	1.36
354.846	1.41
355.216	1.49
355.585	1.43
355.955	1.29
356.324	1.4
356.694	1.34
357.063	1.38
357.433	1.33
357.802	1.38
358.171	1.4
358.541	1.3
358.91	1.36
359.279	1.32
359.648	1.28
360.017	1.37
360.387	1.35
360.756	1.24
361.125	1.28
361.494	1.38
361.863	1.27
362.231	1.32
362.6	1.3
362.969	1.31
363.338	1.23
363.707	1.34
364.075	1.33
364.444	1.17
364.813	1.24
365.181	1.24
365.55	1.33
365.918	1.28
366.287	1.25
366.655	1.32
367.024	1.24
367.392	1.26
367.76	1.25
368.128	1.26
368.497	1.26
368.865	1.29
369.233	1.28
369.601	1.26
369.969	1.23
370.337	1.21
370.705	1.25
371.073	1.3
371.441	1.32
371.809	1.26
372.177	1.2
372.544	1.2
372.912	1.28
373.28	1.31
373.647	1.31
374.015	1.33
374.383	1.33
374.75	1.3
375.118	1.27
375.485	1.31
375.853	1.28
376.22	1.23
376.587	1.28
376.955	1.33
377.322	1.4
377.689	1.29
378.056	1.27
378.423	1.25
378.79	1.25
379.157	1.3
379.524	1.36
379.891	1.26
380.258	1.36
380.625	1.25
380.992	1.3
381.359	1.32
381.726	1.37
382.092	1.26
382.459	1.31
382.826	1.36
383.192	1.38
383.559	1.39
383.925	1.39
384.292	1.35
384.658	1.48
385.025	1.34
385.391	1.46
385.757	1.37
386.123	1.56
386.49	1.33
386.856	1.46
387.222	1.49
387.588	1.42
387.954	1.57
388.32	1.46
388.686	1.5
389.052	1.45
389.418	1.43
389.784	1.33
390.15	1.47
390.515	1.35
390.881	1.42
391.247	1.5
391.613	1.49
391.978	1.31
392.344	1.51
392.709	1.41
393.075	1.47
393.44	1.43
393.806	1.44
394.171	1.38
394.536	1.36
394.902	1.44
395.267	1.41
395.632	1.33
395.997	1.35
396.362	1.48
396.727	1.35
397.092	1.43
397.457	1.39
397.822	1.39
398.187	1.44
398.552	1.36
398.917	1.57
399.282	1.36
399.646	1.35
400.011	1.41
400.376	1.3
400.74	1.34
401.105	1.31
401.47	1.4
401.834	1.33
402.199	1.32
402.563	1.31
402.927	1.34
403.292	1.32
403.656	1.29
404.02	1.3
404.384	1.35
404.749	1.29
405.113	1.36
405.477	1.28
405.841	1.31
406.205	1.2
406.569	1.21
406.933	1.21
407.296	1.27
407.66	1.19
408.024	1.21
408.388	1.27
408.752	1.18
409.115	1.21
409.479	1.18
409.842	1.18
410.206	1.17
410.569	1.13
410.933	1.12
411.296	1.15
411.66	1.17
412.023	1.12
412.386	1.12
412.749	1.15
413.113	1.17
413.476	1.04
413.839	1.05
414.202	1.14
414.565	1.06
414.928	1.11
415.291	1.06
415.654	1.06
416.017	1.16
416.38	1.08
416.742	1.03
417.105	0.99
417.468	1
417.83	1.05
418.193	1.11
418.556	1.06
418.918	1.02
419.281	1.01
419.643	1.04
420.005	1.06
420.368	1.06
420.73	1.02
421.092	1.09
421.455	1.02
421.817	0.96
422.179	0.98
422.541	1.02
422.903	1.05
423.265	1.04
423.627	1.02
423.989	0.99
424.351	0.98
424.713	0.98
425.075	1
425.436	0.96
425.798	0.99
426.16	1.05
426.521	0.96
426.883	1.01
427.245	0.99
427.606	0.98
427.967	0.93
428.329	0.96
428.69	1.02
429.052	0.99
429.413	0.99
429.774	0.98
430.135	0.97
430.497	0.96
430.858	0.94
431.219	0.95
431.58	0.92
431.941	0.96
432.302	0.92
432.663	0.91
433.024	0.97
433.384	0.97
433.745	0.91
434.106	0.96
434.467	0.93
434.827	0.93
435.188	0.91
435.548	0.96
435.909	0.93
436.269	0.94
436.63	0.9
436.99	0.9
437.351	0.88
437.711	0.88
438.071	0.89
438.431	0.87
438.792	0.87
439.152	0.85
439.512	0.86
439.872	0.83
440.232	0.89
440.592	0.85
440.952	0.86
441.312	0.84
441.671	0.84
442.031	0.84
442.391	0.86
442.751	0.85
443.11	0.82
443.47	0.82
443.83	0.83
444.189	0.8
444.549	0.8
444.908	0.8
445.267	0.82
445.627	0.8
445.986	0.78
446.345	0.76
446.705	0.79
447.064	0.77
447.423	0.78
447.782	0.75
448.141	0.75
448.5	0.74
448.859	0.74
449.218	0.75
449.577	0.76
449.936	0.74
450.295	0.75
450.653	0.72
451.012	0.73
451.371	0.72
451.729	0.72
452.088	0.72
452.447	0.71
452.805	0.73
453.163	0.72
453.522	0.7
453.88	0.69
454.239	0.69
454.597	0.66
454.955	0.67
455.313	0.66
455.671	0.65
456.029	0.65
456.388	0.64
456.746	0.64
457.104	0.63
457.461	0.62
457.819	0.62
458.177	0.61
458.535	0.6
458.893	0.61
459.25	0.6
459.608	0.58
459.966	0.58
460.323	0.58
460.681	0.55
461.038	0.57
461.396	0.55
461.753	0.56
462.111	0.54
462.468	0.54
462.825	0.55
463.182	0.53
463.54	0.52
463.897	0.53
464.254	0.51
464.611	0.51
464.968	0.5
465.325	0.51
465.682	0.49
466.039	0.5
466.395	0.49
466.752	0.48
467.109	0.47
467.466	0.47
467.822	0.47
468.179	0.45
468.535	0.44
468.892	0.44
469.248	0.43
469.605	0.43
469.961	0.43
470.318	0.44
470.674	0.42
471.03	0.41
471.386	0.41
471.743	0.4
472.099	0.39
472.455	0.39
472.811	0.38
473.167	0.39
473.523	0.38
473.879	0.37
474.235	0.37
474.59	0.36
474.946	0.36
475.302	0.36
475.657	0.35
476.013	0.34
476.369	0.34
476.724	0.35
477.08	0.34
477.435	0.34
477.791	0.33
478.146	0.33
478.501	0.32
478.857	0.32
479.212	0.32
479.567	0.31
479.922	0.3
480.277	0.3
480.632	0.29
480.987	0.29
481.342	0.29
481.697	0.28
482.052	0.28
482.407	0.28
482.762	0.27
483.116	0.27
483.471	0.26
483.826	0.26
484.18	0.26
484.535	0.25
484.89	0.26
485.244	0.25
485.598	0.25
485.953	0.25
486.307	0.25
486.661	0.25
487.016	0.24
487.37	0.25
487.724	0.24
488.078	0.24
488.432	0.23
488.786	0.23
489.14	0.23
489.494	0.22
489.848	0.22
490.202	0.22
490.556	0.22
490.91	0.21
491.263	0.22
491.617	0.21
491.971	0.21
492.324	0.21
492.678	0.21
493.031	0.21
493.385	0.21
493.738	0.21
494.091	0.21
494.445	0.2
494.798	0.2
495.151	0.2
495.504	0.2
495.857	0.19
496.21	0.2
496.564	0.19
496.916	0.2
497.269	0.19
497.622	0.19
497.975	0.19
498.328	0.18
498.681	0.18
499.033	0.18
499.386	0.18
499.739	0.18
500.091	0.18
500.444	0.18
500.796	0.17
501.149	0.17
501.501	0.18
501.854	0.18
502.206	0.17
502.558	0.18
502.91	0.18
503.263	0.18
503.615	0.17
503.967	0.17
504.319	0.17
504.671	0.17
505.023	0.17
505.375	0.17
505.726	0.16
506.078	0.17
506.43	0.16
506.782	0.18
507.133	0.17
507.485	0.17
507.837	0.17
508.188	0.17
508.54	0.17
508.891	0.18
509.243	0.17
509.594	0.17
509.945	0.17
510.296	0.16
510.648	0.16
510.999	0.16
511.35	0.16
511.701	0.17
512.052	0.17
512.403	0.17
512.754	0.16
513.105	0.16
513.456	0.16
513.807	0.15
514.157	0.16
514.508	0.16
514.859	0.16
515.209	0.16
515.56	0.16
515.91	0.16
516.261	0.16
516.611	0.15
516.962	0.16
517.312	0.17
517.662	0.17
518.013	0.16
518.363	0.16
518.713	0.17
519.063	0.16
519.413	0.17
519.763	0.16
520.113	0.17
520.463	0.17
520.813	0.17
521.163	0.17
521.512	0.16
521.862	0.16
522.212	0.16
522.562	0.17
522.911	0.17
523.261	0.16
523.61	0.17
523.96	0.17
524.309	0.17
524.658	0.17
525.008	0.15
525.357	0.16
525.706	0.17
526.056	0.16
526.405	0.17
526.754	0.16
527.103	0.16
527.452	0.16
527.801	0.17
528.15	0.17
528.499	0.17
528.847	0.17
529.196	0.18
529.545	0.18
529.893	0.17
530.242	0.17
530.591	0.17
530.939	0.18
531.288	0.17
531.636	0.18
531.985	0.17
532.333	0.18
532.681	0.18
533.029	0.17
533.378	0.17
533.726	0.17
534.074	0.18
534.422	0.17
534.77	0.18
535.118	0.17
535.466	0.17
535.814	0.18
536.162	0.17
536.509	0.18
536.857	0.18
537.205	0.18
537.552	0.18
537.9	0.18
538.248	0.18
538.595	0.18
538.943	0.18
539.29	0.18
539.637	0.17
539.985	0.18
540.332	0.18
540.679	0.18
541.026	0.17
541.373	0.19
541.721	0.17
542.068	0.17
542.415	0.17
542.762	0.17
543.108	0.17
543.455	0.17
543.802	0.16
544.149	0.17
544.496	0.17
544.842	0.17
545.189	0.15
545.535	0.17
545.882	0.16
546.228	0.16
546.575	0.17
546.921	0.16
547.267	0.17
547.614	0.17
547.96	0.16
548.306	0.16
548.652	0.16
548.998	0.18
549.344	0.17
549.69	0.16
550.036	0.17
550.382	0.16
550.728	0.17
551.074	0.18
551.42	0.17
551.765	0.18
552.111	0.18
552.457	0.18
552.802	0.18
553.148	0.17
553.493	0.17
553.839	0.18
554.184	0.18
554.529	0.17
554.875	0.18
555.22	0.18
555.565	0.17
555.91	0.18
556.255	0.19
556.6	0.18
556.945	0.18
557.29	0.17
557.635	0.18
557.98	0.17
558.325	0.18
558.67	0.18
559.014	0.18
559.359	0.18
559.704	0.18
560.048	0.18
560.393	0.18
560.737	0.17
561.082	0.17
561.426	0.17
561.77	0.18
562.115	0.17
562.459	0.17
562.803	0.18
563.147	0.18
563.491	0.18
563.835	0.17
564.179	0.18
564.523	0.17
564.867	0.17
565.211	0.18
565.555	0.18
565.899	0.18
566.242	0.17
566.586	0.17
566.93	0.18
567.273	0.18
567.617	0.17
567.96	0.18
568.304	0.18
568.647	0.18
568.99	0.18
569.334	0.19
569.677	0.18
570.02	0.18
570.363	0.18
570.706	0.18
571.049	0.18
571.392	0.18
571.735	0.19
572.078	0.18
572.421	0.19
572.764	0.18
573.106	0.19
573.449	0.18
573.792	0.18
574.134	0.18
574.477	0.19
574.819	0.18
575.162	0.18
575.504	0.18
575.847	0.18
576.189	0.18
576.531	0.18
576.873	0.18
577.215	0.18
577.558	0.18
577.9	0.17
578.242	0.18
578.584	0.18
578.926	0.18
579.267	0.18
579.609	0.18
579.951	0.18
580.293	0.18
580.634	0.18
580.976	0.19
581.318	0.18
581.659	0.17
582.001	0.18
582.342	0.18
582.683	0.18
583.025	0.17
583.366	0.17
583.707	0.18
584.049	0.18
584.39	0.17
584.731	0.17
585.072	0.17
585.413	0.18
585.754	0.18
586.095	0.18
586.435	0.17
586.776	0.18
587.117	0.18
587.458	0.17
587.798	0.18
588.139	0.18
588.48	0.17
588.82	0.17
589.161	0.17
589.501	0.17
589.841	0.17
590.182	0.17
590.522	0.17
590.862	0.17
591.202	0.18
591.542	0.17
591.882	0.18
592.222	0.18
592.562	0.17
592.902	0.17
593.242	0.17
593.582	0.18
593.922	0.17
594.261	0.17
594.601	0.17
594.941	0.17
595.28	0.18
595.62	0.18
595.959	0.17
596.299	0.17
596.638	0.17
596.977	0.18
597.317	0.18
597.656	0.18
597.995	0.17
598.334	0.18
598.673	0.18
599.012	0.17
599.351	0.18
599.69	0.18
600.029	0.18
600.368	0.18
600.707	0.18
601.046	0.18
601.384	0.19
601.723	0.18
602.061	0.17
602.4	0.18
602.738	0.17
603.077	0.18
603.415	0.18
603.754	0.17
604.092	0.18
604.43	0.18
604.768	0.17
605.107	0.18
605.445	0.17
605.783	0.17
606.121	0.17
606.459	0.17
606.796	0.17
607.134	0.17
607.472	0.17
607.81	0.18
608.148	0.17
608.485	0.18
608.823	0.18
609.16	0.17
609.498	0.17
609.835	0.17
610.173	0.17
610.51	0.17
610.847	0.17
611.185	0.17
611.522	0.17
611.859	0.17
612.196	0.17
612.533	0.17
612.87	0.18
613.207	0.18
613.544	0.17
613.881	0.18
614.217	0.18
614.554	0.18
614.891	0.18
615.228	0.17
615.564	0.18
615.901	0.18
616.237	0.18
616.574	0.18
616.91	0.19
617.246	0.19
617.583	0.18
617.919	0.19
618.255	0.18
618.591	0.17
618.927	0.18
619.263	0.19
619.599	0.18
619.935	0.17
620.271	0.18
620.607	0.17
620.943	0.17
621.279	0.18
621.614	0.18
621.95	0.18
622.286	0.17
622.621	0.17
622.957	0.17
623.292	0.17
623.627	0.17
623.963	0.18
624.298	0.18
624.633	0.17
624.968	0.17
625.304	0.17
625.639	0.17
625.974	0.17
626.309	0.16
626.644	0.17
626.979	0.17
627.313	0.16
627.648	0.16
627.983	0.17
628.318	0.16
628.652	0.17
628.987	0.16
629.321	0.17
629.656	0.16
629.99	0.16
630.325	0.15
630.659	0.16
630.993	0.16
631.327	0.16
631.662	0.15
631.996	0.15
632.33	0.15
632.664	0.16
632.998	0.15
633.332	0.15
633.666	0.15
633.999	0.15
634.333	0.15
634.667	0.16
635.001	0.15
635.334	0.15
635.668	0.15
636.001	0.15
636.335	0.16
636.668	0.15
637.001	0.15
637.335	0.15
637.668	0.15
638.001	0.15
638.334	0.15
638.668	0.15
639.001	0.14
639.334	0.15
639.667	0.15
639.999	0.15
640.332	0.15
640.665	0.15
640.998	0.15
641.331	0.15
641.663	0.15
641.996	0.16
642.328	0.16
642.661	0.15
642.993	0.15
643.326	0.16
643.658	0.14
643.99	0.14
644.323	0.15
644.655	0.14
644.987	0.15
645.319	0.15
645.651	0.15
645.983	0.15
646.315	0.14
646.647	0.15
646.979	0.16
647.31	0.15
647.642	0.15
647.974	0.14
648.305	0.16
648.637	0.15
648.968	0.15
649.3	0.15
649.631	0.16
649.963	0.15
650.294	0.15
650.625	0.15
650.957	0.15
651.288	0.16
651.619	0.16
651.95	0.15
652.281	0.15
652.612	0.15
652.943	0.16
653.274	0.15
653.604	0.15
653.935	0.15
654.266	0.15
654.596	0.15
654.927	0.15
655.258	0.16
655.588	0.15
655.918	0.15
656.249	0.13
656.579	0.14
656.909	0.14
657.24	0.14
657.57	0.15
657.9	0.15
658.23	0.14
658.56	0.15
658.89	0.15
659.22	0.14
659.55	0.14
659.88	0.14
660.209	0.15
660.539	0.15
660.869	0.14
661.198	0.15
661.528	0.15
661.857	0.14
662.187	0.14
662.516	0.14
662.846	0.13
663.175	0.14
663.504	0.14
663.833	0.13
664.163	0.14
664.492	0.14
664.821	0.14
665.15	0.14
665.479	0.14
665.807	0.14
666.136	0.14
666.465	0.14
666.794	0.14
667.122	0.14
667.451	0.14
667.78	0.15
668.108	0.14
668.437	0.14
668.765	0.15
669.093	0.15
669.422	0.14
669.75	0.14
670.078	0.14
670.406	0.14
670.734	0.14
671.062	0.14
671.39	0.13
671.718	0.14
672.046	0.13
672.374	0.13
672.702	0.14
673.029	0.13
673.357	0.14
673.685	0.13
674.012	0.13
674.34	0.14
674.667	0.14
674.995	0.14
675.322	0.13
675.649	0.13
675.977	0.14
676.304	0.13
676.631	0.13
676.958	0.13
677.285	0.13
677.612	0.12
677.939	0.14
678.266	0.14
678.593	0.13
678.92	0.13
679.246	0.13
679.573	0.13
679.9	0.13
680.226	0.13
680.553	0.12
680.879	0.13
681.206	0.13
681.532	0.13
681.858	0.13
682.184	0.13
682.511	0.13
682.837	0.13
683.163	0.13
683.489	0.13
683.815	0.12
684.141	0.13
684.467	0.13
684.793	0.12
685.118	0.13
685.444	0.12
685.77	0.12
686.095	0.12
686.421	0.13
686.746	0.13
687.072	0.13
687.397	0.12
687.723	0.13
688.048	0.13
688.373	0.12
688.698	0.12
689.023	0.12
689.349	0.12
689.674	0.13
689.999	0.12
690.323	0.11
690.648	0.12
690.973	0.11
691.298	0.11
691.623	0.12
691.947	0.12
692.272	0.12
692.596	0.12
692.921	0.12
693.245	0.12
693.57	0.13
693.894	0.13
694.218	0.12
694.543	0.12
694.867	0.12
695.191	0.11
695.515	0.13
695.839	0.12
696.163	0.12
696.487	0.11
696.811	0.12
697.135	0.12
697.458	0.12
697.782	0.12
698.106	0.12
698.429	0.12
698.753	0.11
699.076	0.12
699.4	0.12
699.723	0.12
700.046	0.11
700.37	0.12
700.693	0.12
701.016	0.11
701.339	0.12
701.662	0.12
701.985	0.12
702.308	0.11
702.631	0.12
702.954	0.11
703.277	0.11
703.599	0.11
703.922	0.11
704.245	0.11
704.567	0.11
704.89	0.11
705.212	0.11
705.535	0.1
705.857	0.1
706.179	0.1
706.502	0.1
706.824	0.1
707.146	0.1
707.468	0.11
707.79	0.11
708.112	0.11
708.434	0.11
708.756	0.11
709.078	0.11
709.399	0.1
709.721	0.1
710.043	0.11
710.364	0.11
710.686	0.11
711.007	0.11
711.329	0.11
711.65	0.11
711.972	0.11
712.293	0.11
712.614	0.11
712.935	0.11
713.256	0.11
713.577	0.11
713.898	0.11
714.219	0.11
714.54	0.1
714.861	0.1
715.182	0.1
715.503	0.1
715.823	0.1
716.144	0.09
716.464	0.1
716.785	0.1
717.105	0.1
717.426	0.1
717.746	0.1
718.066	0.09
718.387	0.09
718.707	0.09
719.027	0.1
719.347	0.09
719.667	0.09
719.987	0.09
720.307	0.09
720.627	0.09
720.947	0.1
721.266	0.09
721.586	0.09
721.906	0.09
722.225	0.09
722.545	0.09
722.864	0.09
723.184	0.1
723.503	0.09
