Data from 12-12-AQDScycling_Absorbance__861__00861.txt Node

Date: Tue Dec 12 14:31:59 EST 2023
User: kyuminlee
Spectrometer: FLMS00943
Trigger mode: 0
Integration Time (sec): 1.000000E-1
Scans to average: 1
Electric dark correction enabled: true
Nonlinearity correction enabled: false
Boxcar width: 0
XAxis mode: Wavelengths
Number of Pixels in Spectrum: 2048
>>>>>Begin Spectral Data<<<<<
179.651	-0
180.037	-0
180.424	-0
180.81	-0
181.197	0.17
181.583	-0
181.97	-0.36
182.356	-0
182.743	-1.61
183.129	-0.13
183.515	-0
183.901	-2.4
184.288	0.16
184.674	-0
185.06	-1.27
185.446	-0.47
185.832	-1.15
186.218	0.57
186.604	0.21
186.99	-0
187.376	0.03
187.762	-0
188.148	0.09
188.534	-0.06
188.92	0.06
189.305	0.08
189.691	0.16
190.077	0.23
190.463	0.15
190.848	0.07
191.234	0.08
191.619	0.07
192.005	0.08
192.391	0.05
192.776	0.16
193.161	0.26
193.547	0.1
193.932	0.07
194.318	0.2
194.703	-0.01
195.088	0.05
195.473	0.14
195.859	0.13
196.244	0.13
196.629	0.14
197.014	0.04
197.399	0.17
197.784	0.11
198.169	0.09
198.554	0.15
198.939	0.06
199.324	0.16
199.709	0.08
200.094	0.03
200.478	0.07
200.863	0.25
201.248	0.18
201.633	0.16
202.017	0.14
202.402	0.21
202.787	0.04
203.171	0.17
203.556	0.15
203.94	0.05
204.325	0.15
204.709	0.25
205.093	0.1
205.478	0.06
205.862	0.07
206.246	0.12
206.631	0.06
207.015	0.13
207.399	0.16
207.783	0.22
208.167	0.15
208.551	0.28
208.935	0.14
209.319	0.15
209.703	0.12
210.087	0.2
210.471	0.15
210.855	0.24
211.239	0.32
211.623	0.29
212.007	0.11
212.39	0.35
212.774	0.2
213.158	0.05
213.541	0.3
213.925	0.23
214.309	0.36
214.692	0.2
215.076	0.19
215.459	0.16
215.842	0.19
216.226	0.17
216.609	0.17
216.993	0.27
217.376	0.48
217.759	0.21
218.142	0.25
218.525	0.58
218.909	0.43
219.292	0.31
219.675	0.58
220.058	0.53
220.441	0.48
220.824	0.45
221.207	0.53
221.59	0.54
221.973	0.57
222.355	0.51
222.738	0.6
223.121	0.6
223.504	0.52
223.886	0.64
224.269	0.64
224.652	0.63
225.034	0.67
225.417	0.67
225.799	0.72
226.182	0.82
226.564	0.85
226.947	0.69
227.329	0.76
227.711	0.88
228.094	1.09
228.476	0.88
228.858	0.78
229.24	0.86
229.623	0.96
230.005	0.97
230.387	0.9
230.769	0.89
231.151	0.94
231.533	0.87
231.915	0.91
232.297	0.97
232.679	1.07
233.061	0.99
233.442	1.02
233.824	1.14
234.206	1.03
234.588	1.05
234.969	1.02
235.351	1.02
235.733	1.07
236.114	1.29
236.496	1.05
236.877	1.07
237.259	1.12
237.64	1.01
238.022	1
238.403	0.98
238.784	1.09
239.165	0.93
239.547	0.98
239.928	1.1
240.309	1.01
240.69	1.28
241.071	1.12
241.452	1.05
241.834	1.05
242.215	1.02
242.595	1.06
242.976	1.18
243.357	1.19
243.738	1.06
244.119	1.2
244.5	1.08
244.881	1.18
245.261	1.19
245.642	1.14
246.023	1.17
246.403	1.23
246.784	1.24
247.164	1.36
247.545	1.21
247.925	1.37
248.306	1.23
248.686	1.41
249.067	1.33
249.447	1.27
249.827	1.58
250.207	1.45
250.588	1.25
250.968	1.49
251.348	1.3
251.728	1.57
252.108	1.45
252.488	1.37
252.868	1.32
253.248	1.37
253.628	1.3
254.008	1.61
254.388	1.28
254.768	1.34
255.147	1.29
255.527	1.57
255.907	1.35
256.287	1.29
256.666	1.49
257.046	1.42
257.425	1.46
257.805	1.36
258.184	1.32
258.564	1.33
258.943	1.46
259.323	1.45
259.702	1.41
260.081	1.44
260.461	1.48
260.84	1.41
261.219	1.63
261.598	1.47
261.977	1.48
262.356	1.67
262.736	1.46
263.115	1.45
263.494	1.33
263.873	1.5
264.251	1.61
264.63	1.69
265.009	1.58
265.388	1.44
265.767	1.3
266.145	1.42
266.524	1.33
266.903	1.37
267.281	1.38
267.66	1.38
268.039	1.47
268.417	1.47
268.796	1.48
269.174	1.44
269.552	1.46
269.931	1.49
270.309	1.41
270.687	1.54
271.066	1.6
271.444	1.35
271.822	1.39
272.2	1.37
272.578	1.31
272.956	1.56
273.334	1.36
273.712	1.3
274.09	1.48
274.468	1.36
274.846	1.32
275.224	1.33
275.602	1.59
275.98	1.65
276.357	1.46
276.735	1.35
277.113	1.39
277.49	1.29
277.868	1.29
278.246	1.32
278.623	1.34
279.001	1.35
279.378	1.57
279.756	1.59
280.133	1.56
280.51	1.31
280.888	1.54
281.265	1.39
281.642	1.39
282.019	1.53
282.396	1.62
282.773	1.47
283.151	1.64
283.528	1.38
283.905	1.38
284.282	1.51
284.659	1.59
285.035	1.38
285.412	1.34
285.789	1.46
286.166	1.46
286.543	1.34
286.919	1.5
287.296	1.4
287.673	1.68
288.049	1.7
288.426	1.53
288.802	1.52
289.179	1.63
289.555	1.75
289.932	1.47
290.308	1.35
290.684	1.37
291.061	1.4
291.437	1.61
291.813	1.44
292.189	1.31
292.565	1.35
292.942	1.32
293.318	1.47
293.694	1.32
294.07	1.34
294.446	1.36
294.822	1.5
295.197	1.42
295.573	1.4
295.949	1.46
296.325	1.4
296.701	1.34
297.076	1.4
297.452	1.43
297.828	1.32
298.203	1.43
298.579	1.42
298.954	1.36
299.33	1.28
299.705	1.31
300.081	1.41
300.456	1.27
300.831	1.3
301.206	1.29
301.582	1.37
301.957	1.31
302.332	1.35
302.707	1.18
303.082	1.12
303.457	1.18
303.832	1.22
304.207	1.13
304.582	1.11
304.957	1.08
305.332	1.11
305.707	1.03
306.082	1.07
306.456	1.09
306.831	1.04
307.206	1.01
307.58	1.01
307.955	0.99
308.33	0.94
308.704	1
309.079	0.94
309.453	0.92
309.828	0.89
310.202	0.88
310.576	0.87
310.951	0.92
311.325	0.85
311.699	0.84
312.073	0.82
312.447	0.85
312.821	0.83
313.196	0.8
313.57	0.78
313.944	0.78
314.317	0.75
314.691	0.79
315.065	0.79
315.439	0.77
315.813	0.78
316.187	0.73
316.56	0.76
316.934	0.76
317.308	0.74
317.681	0.7
318.055	0.74
318.428	0.72
318.802	0.75
319.175	0.73
319.549	0.71
319.922	0.7
320.295	0.72
320.669	0.71
321.042	0.7
321.415	0.73
321.788	0.71
322.162	0.69
322.535	0.68
322.908	0.7
323.281	0.67
323.654	0.69
324.027	0.65
324.4	0.68
324.773	0.67
325.145	0.69
325.518	0.68
325.891	0.67
326.264	0.71
326.636	0.7
327.009	0.7
327.382	0.69
327.754	0.69
328.127	0.69
328.499	0.7
328.872	0.69
329.244	0.74
329.616	0.69
329.989	0.72
330.361	0.71
330.733	0.72
331.106	0.71
331.478	0.75
331.85	0.73
332.222	0.72
332.594	0.75
332.966	0.77
333.338	0.78
333.71	0.79
334.082	0.82
334.454	0.75
334.826	0.77
335.197	0.79
335.569	0.86
335.941	0.83
336.312	0.84
336.684	0.83
337.056	0.83
337.427	0.86
337.799	0.84
338.17	0.87
338.542	0.89
338.913	0.87
339.284	0.91
339.656	0.9
340.027	0.91
340.398	0.96
340.769	0.93
341.141	0.98
341.512	0.93
341.883	0.97
342.254	0.94
342.625	0.99
342.996	0.95
343.367	0.99
343.738	1.03
344.108	1.04
344.479	1.04
344.85	0.96
345.221	1.11
345.591	1.02
345.962	1.07
346.333	1.1
346.703	1.05
347.074	1.11
347.444	1.07
347.815	1.13
348.185	1.14
348.556	1.05
348.926	1.13
349.296	1.22
349.666	1.15
350.037	1.11
350.407	1.09
350.777	1.27
351.147	1.25
351.517	1.19
351.887	1.21
352.257	1.21
352.627	1.23
352.997	1.25
353.367	1.41
353.737	1.39
354.106	1.33
354.476	1.28
354.846	1.39
355.216	1.48
355.585	1.49
355.955	1.38
356.324	1.4
356.694	1.4
357.063	1.39
357.433	1.36
357.802	1.44
358.171	1.45
358.541	1.51
358.91	1.49
359.279	1.63
359.648	1.43
360.017	1.55
360.387	1.56
360.756	1.51
361.125	1.56
361.494	1.68
361.863	1.52
362.231	1.62
362.6	1.51
362.969	1.49
363.338	1.55
363.707	1.64
364.075	1.9
364.444	1.39
364.813	1.49
365.181	1.49
365.55	1.79
365.918	1.59
366.287	1.5
366.655	1.56
367.024	1.68
367.392	1.59
367.76	1.52
368.128	1.58
368.497	1.51
368.865	1.57
369.233	1.5
369.601	1.6
369.969	1.45
370.337	1.56
370.705	1.58
371.073	1.53
371.441	1.53
371.809	1.53
372.177	1.52
372.544	1.54
372.912	1.53
373.28	1.51
373.647	1.51
374.015	1.56
374.383	1.86
374.75	1.72
375.118	1.51
375.485	1.52
375.853	1.64
376.22	1.52
376.587	1.57
376.955	1.53
377.322	1.65
377.689	1.83
378.056	1.51
378.423	1.45
378.79	1.55
379.157	1.52
379.524	1.71
379.891	1.52
380.258	1.48
380.625	1.65
380.992	1.63
381.359	1.61
381.726	1.79
382.092	1.57
382.459	1.68
382.826	1.6
383.192	1.69
383.559	1.54
383.925	1.62
384.292	1.49
384.658	1.62
385.025	1.45
385.391	1.58
385.757	1.64
386.123	1.76
386.49	1.49
386.856	1.51
387.222	1.58
387.588	1.53
387.954	1.66
388.32	1.65
388.686	1.65
389.052	1.45
389.418	1.62
389.784	1.47
390.15	1.69
390.515	1.39
390.881	1.59
391.247	1.45
391.613	1.68
391.978	1.44
392.344	1.67
392.709	1.58
393.075	1.58
393.44	1.6
393.806	1.55
394.171	1.43
394.536	1.63
394.902	1.49
395.267	1.53
395.632	1.42
395.997	1.42
396.362	1.43
396.727	1.56
397.092	1.61
397.457	1.56
397.822	1.51
398.187	1.58
398.552	1.43
398.917	1.6
399.282	1.46
399.646	1.6
400.011	1.64
400.376	1.53
400.74	1.53
401.105	1.57
401.47	1.61
401.834	1.77
402.199	1.62
402.563	1.55
402.927	1.66
403.292	1.67
403.656	1.64
404.02	1.57
404.384	1.72
404.749	1.62
405.113	1.63
405.477	1.54
405.841	1.49
406.205	1.63
406.569	1.58
406.933	1.61
407.296	1.64
407.66	1.56
408.024	1.56
408.388	1.69
408.752	1.58
409.115	1.56
409.479	1.67
409.842	1.51
410.206	1.41
410.569	1.49
410.933	1.56
411.296	1.51
411.66	1.68
412.023	1.49
412.386	1.53
412.749	1.38
413.113	1.59
413.476	1.45
413.839	1.43
414.202	1.42
414.565	1.38
414.928	1.52
415.291	1.45
415.654	1.49
416.017	1.57
416.38	1.45
416.742	1.43
417.105	1.43
417.468	1.43
417.83	1.43
418.193	1.55
418.556	1.56
418.918	1.48
419.281	1.6
419.643	1.52
420.005	1.53
420.368	1.61
420.73	1.54
421.092	1.62
421.455	1.66
421.817	1.44
422.179	1.49
422.541	1.6
422.903	1.69
423.265	1.48
423.627	1.58
423.989	1.61
424.351	1.59
424.713	1.56
425.075	1.53
425.436	1.52
425.798	1.58
426.16	1.63
426.521	1.59
426.883	1.51
427.245	1.55
427.606	1.41
427.967	1.45
428.329	1.63
428.69	1.55
429.052	1.43
429.413	1.46
429.774	1.71
430.135	1.54
430.497	1.48
430.858	1.52
431.219	1.66
431.58	1.49
431.941	1.5
432.302	1.49
432.663	1.67
433.024	1.59
433.384	1.65
433.745	1.55
434.106	1.56
434.467	1.52
434.827	1.57
435.188	1.53
435.548	1.66
435.909	1.62
436.269	1.59
436.63	1.46
436.99	1.55
437.351	1.43
437.711	1.52
438.071	1.49
438.431	1.48
438.792	1.44
439.152	1.49
439.512	1.44
439.872	1.46
440.232	1.51
440.592	1.63
440.952	1.45
441.312	1.41
441.671	1.49
442.031	1.54
442.391	1.45
442.751	1.47
443.11	1.5
443.47	1.42
443.83	1.33
444.189	1.4
444.549	1.44
444.908	1.43
445.267	1.47
445.627	1.44
445.986	1.36
446.345	1.35
446.705	1.44
447.064	1.48
447.423	1.35
447.782	1.49
448.141	1.33
448.5	1.29
448.859	1.32
449.218	1.39
449.577	1.39
449.936	1.34
450.295	1.33
450.653	1.33
451.012	1.27
451.371	1.3
451.729	1.28
452.088	1.33
452.447	1.3
452.805	1.29
453.163	1.29
453.522	1.26
453.88	1.27
454.239	1.27
454.597	1.22
454.955	1.2
455.313	1.23
455.671	1.21
456.029	1.21
456.388	1.17
456.746	1.19
457.104	1.16
457.461	1.14
457.819	1.13
458.177	1.12
458.535	1.1
458.893	1.08
459.25	1.08
459.608	1.04
459.966	1.04
460.323	1.06
460.681	1.02
461.038	1
461.396	0.99
461.753	0.96
462.111	0.95
462.468	0.96
462.825	0.94
463.182	0.91
463.54	0.9
463.897	0.9
464.254	0.9
464.611	0.87
464.968	0.86
465.325	0.86
465.682	0.84
466.039	0.83
466.395	0.81
466.752	0.8
467.109	0.79
467.466	0.8
467.822	0.77
468.179	0.75
468.535	0.74
468.892	0.74
469.248	0.72
469.605	0.7
469.961	0.71
470.318	0.7
470.674	0.67
471.03	0.66
471.386	0.65
471.743	0.64
472.099	0.63
472.455	0.63
472.811	0.61
473.167	0.6
473.523	0.59
473.879	0.58
474.235	0.57
474.59	0.56
474.946	0.54
475.302	0.54
475.657	0.53
476.013	0.52
476.369	0.5
476.724	0.5
477.08	0.5
477.435	0.48
477.791	0.48
478.146	0.47
478.501	0.46
478.857	0.45
479.212	0.44
479.567	0.43
479.922	0.41
480.277	0.4
480.632	0.39
480.987	0.39
481.342	0.38
481.697	0.38
482.052	0.37
482.407	0.37
482.762	0.35
483.116	0.35
483.471	0.34
483.826	0.32
484.18	0.32
484.535	0.31
484.89	0.31
485.244	0.31
485.598	0.3
485.953	0.29
486.307	0.28
486.661	0.28
487.016	0.27
487.37	0.28
487.724	0.26
488.078	0.26
488.432	0.26
488.786	0.25
489.14	0.25
489.494	0.24
489.848	0.23
490.202	0.23
490.556	0.22
490.91	0.22
491.263	0.21
491.617	0.21
491.971	0.21
492.324	0.2
492.678	0.2
493.031	0.19
493.385	0.19
493.738	0.19
494.091	0.19
494.445	0.18
494.798	0.18
495.151	0.18
495.504	0.17
495.857	0.18
496.21	0.17
496.564	0.16
496.916	0.16
497.269	0.16
497.622	0.16
497.975	0.15
498.328	0.15
498.681	0.15
499.033	0.14
499.386	0.14
499.739	0.13
500.091	0.14
500.444	0.13
500.796	0.13
501.149	0.12
501.501	0.13
501.854	0.13
502.206	0.12
502.558	0.12
502.91	0.12
503.263	0.11
503.615	0.11
503.967	0.11
504.319	0.12
504.671	0.11
505.023	0.1
505.375	0.11
505.726	0.1
506.078	0.1
506.43	0.1
506.782	0.09
507.133	0.1
507.485	0.11
507.837	0.11
508.188	0.1
508.54	0.1
508.891	0.1
509.243	0.1
509.594	0.09
509.945	0.1
510.296	0.09
510.648	0.09
510.999	0.09
511.35	0.09
511.701	0.09
512.052	0.09
512.403	0.09
512.754	0.09
513.105	0.08
513.456	0.08
513.807	0.08
514.157	0.08
514.508	0.08
514.859	0.08
515.209	0.08
515.56	0.08
515.91	0.08
516.261	0.08
516.611	0.08
516.962	0.07
517.312	0.08
517.662	0.08
518.013	0.08
518.363	0.08
518.713	0.08
519.063	0.08
519.413	0.08
519.763	0.08
520.113	0.08
520.463	0.08
520.813	0.09
521.163	0.08
521.512	0.08
521.862	0.07
522.212	0.08
522.562	0.08
522.911	0.08
523.261	0.07
523.61	0.08
523.96	0.08
524.309	0.08
524.658	0.08
525.008	0.07
525.357	0.07
525.706	0.08
526.056	0.07
526.405	0.08
526.754	0.07
527.103	0.07
527.452	0.07
527.801	0.07
528.15	0.07
528.499	0.07
528.847	0.08
529.196	0.08
529.545	0.08
529.893	0.08
530.242	0.08
530.591	0.08
530.939	0.08
531.288	0.08
531.636	0.08
531.985	0.07
532.333	0.07
532.681	0.08
533.029	0.07
533.378	0.07
533.726	0.07
534.074	0.08
534.422	0.07
534.77	0.08
535.118	0.08
535.466	0.08
535.814	0.07
536.162	0.08
536.509	0.08
536.857	0.07
537.205	0.07
537.552	0.08
537.9	0.08
538.248	0.07
538.595	0.08
538.943	0.08
539.29	0.08
539.637	0.08
539.985	0.08
540.332	0.07
540.679	0.08
541.026	0.07
541.373	0.08
541.721	0.06
542.068	0.07
542.415	0.07
542.762	0.07
543.108	0.07
543.455	0.06
543.802	0.07
544.149	0.07
544.496	0.07
544.842	0.07
545.189	0.06
545.535	0.06
545.882	0.07
546.228	0.06
546.575	0.05
546.921	0.06
547.267	0.06
547.614	0.06
547.96	0.06
548.306	0.06
548.652	0.05
548.998	0.07
549.344	0.06
549.69	0.06
550.036	0.06
550.382	0.06
550.728	0.06
551.074	0.07
551.42	0.07
551.765	0.07
552.111	0.07
552.457	0.07
552.802	0.07
553.148	0.06
553.493	0.06
553.839	0.07
554.184	0.07
554.529	0.06
554.875	0.07
555.22	0.07
555.565	0.08
555.91	0.07
556.255	0.07
556.6	0.07
556.945	0.06
557.29	0.07
557.635	0.07
557.98	0.07
558.325	0.06
558.67	0.07
559.014	0.07
559.359	0.07
559.704	0.06
560.048	0.06
560.393	0.06
560.737	0.06
561.082	0.06
561.426	0.06
561.77	0.07
562.115	0.06
562.459	0.06
562.803	0.07
563.147	0.06
563.491	0.07
563.835	0.06
564.179	0.06
564.523	0.06
564.867	0.05
565.211	0.06
565.555	0.06
565.899	0.07
566.242	0.06
566.586	0.05
566.93	0.07
567.273	0.08
567.617	0.06
567.96	0.07
568.304	0.06
568.647	0.06
568.99	0.07
569.334	0.07
569.677	0.07
570.02	0.07
570.363	0.07
570.706	0.07
571.049	0.07
571.392	0.08
571.735	0.06
572.078	0.07
572.421	0.08
572.764	0.07
573.106	0.07
573.449	0.06
573.792	0.07
574.134	0.07
574.477	0.07
574.819	0.07
575.162	0.06
575.504	0.06
575.847	0.06
576.189	0.06
576.531	0.06
576.873	0.06
577.215	0.06
577.558	0.07
577.9	0.06
578.242	0.06
578.584	0.07
578.926	0.07
579.267	0.06
579.609	0.07
579.951	0.06
580.293	0.06
580.634	0.07
580.976	0.07
581.318	0.06
581.659	0.07
582.001	0.07
582.342	0.06
582.683	0.07
583.025	0.06
583.366	0.06
583.707	0.06
584.049	0.06
584.39	0.07
584.731	0.07
585.072	0.06
585.413	0.08
585.754	0.06
586.095	0.07
586.435	0.07
586.776	0.07
587.117	0.06
587.458	0.06
587.798	0.07
588.139	0.06
588.48	0.06
588.82	0.06
589.161	0.06
589.501	0.06
589.841	0.05
590.182	0.05
590.522	0.06
590.862	0.06
591.202	0.06
591.542	0.06
591.882	0.05
592.222	0.06
592.562	0.06
592.902	0.06
593.242	0.06
593.582	0.07
593.922	0.06
594.261	0.06
594.601	0.06
594.941	0.06
595.28	0.06
595.62	0.06
595.959	0.06
596.299	0.06
596.638	0.06
596.977	0.06
597.317	0.07
597.656	0.06
597.995	0.06
598.334	0.07
598.673	0.06
599.012	0.06
599.351	0.07
599.69	0.07
600.029	0.07
600.368	0.08
600.707	0.08
601.046	0.07
601.384	0.08
601.723	0.07
602.061	0.06
602.4	0.07
602.738	0.07
603.077	0.07
603.415	0.06
603.754	0.07
604.092	0.06
604.43	0.06
604.768	0.06
605.107	0.06
605.445	0.06
605.783	0.06
606.121	0.06
606.459	0.07
606.796	0.06
607.134	0.06
607.472	0.06
607.81	0.07
608.148	0.06
608.485	0.06
608.823	0.07
609.16	0.06
609.498	0.06
609.835	0.06
610.173	0.06
610.51	0.06
610.847	0.06
611.185	0.07
611.522	0.07
611.859	0.06
612.196	0.06
612.533	0.06
612.87	0.07
613.207	0.07
613.544	0.07
613.881	0.08
614.217	0.07
614.554	0.07
614.891	0.07
615.228	0.07
615.564	0.08
615.901	0.08
616.237	0.08
616.574	0.07
616.91	0.08
617.246	0.07
617.583	0.08
617.919	0.08
618.255	0.07
618.591	0.07
618.927	0.07
619.263	0.08
619.599	0.08
619.935	0.08
620.271	0.08
620.607	0.08
620.943	0.07
621.279	0.07
621.614	0.07
621.95	0.08
622.286	0.07
622.621	0.07
622.957	0.07
623.292	0.07
623.627	0.06
623.963	0.07
624.298	0.07
624.633	0.07
624.968	0.07
625.304	0.07
625.639	0.06
625.974	0.06
626.309	0.06
626.644	0.07
626.979	0.07
627.313	0.07
627.648	0.07
627.983	0.07
628.318	0.06
628.652	0.07
628.987	0.07
629.321	0.07
629.656	0.06
629.99	0.06
630.325	0.06
630.659	0.06
630.993	0.06
631.327	0.06
631.662	0.05
631.996	0.05
632.33	0.06
632.664	0.06
632.998	0.05
633.332	0.05
633.666	0.05
633.999	0.06
634.333	0.05
634.667	0.05
635.001	0.05
635.334	0.05
635.668	0.05
636.001	0.05
636.335	0.05
636.668	0.06
637.001	0.04
637.335	0.06
637.668	0.05
638.001	0.05
638.334	0.05
638.668	0.05
639.001	0.05
639.334	0.05
639.667	0.05
639.999	0.05
640.332	0.05
640.665	0.05
640.998	0.05
641.331	0.06
641.663	0.05
641.996	0.05
642.328	0.06
642.661	0.06
642.993	0.05
643.326	0.06
643.658	0.05
643.99	0.05
644.323	0.06
644.655	0.06
644.987	0.06
645.319	0.07
645.651	0.07
645.983	0.06
646.315	0.06
646.647	0.06
646.979	0.07
647.31	0.07
647.642	0.06
647.974	0.07
648.305	0.07
648.637	0.06
648.968	0.06
649.3	0.06
649.631	0.06
649.963	0.06
650.294	0.06
650.625	0.05
650.957	0.06
651.288	0.06
651.619	0.07
651.95	0.06
652.281	0.07
652.612	0.06
652.943	0.06
653.274	0.07
653.604	0.05
653.935	0.06
654.266	0.07
654.596	0.06
654.927	0.06
655.258	0.07
655.588	0.07
655.918	0.07
656.249	0.05
656.579	0.06
656.909	0.06
657.24	0.06
657.57	0.07
657.9	0.06
658.23	0.06
658.56	0.06
658.89	0.06
659.22	0.05
659.55	0.06
659.88	0.06
660.209	0.06
660.539	0.07
660.869	0.06
661.198	0.06
661.528	0.07
661.857	0.06
662.187	0.06
662.516	0.06
662.846	0.06
663.175	0.06
663.504	0.06
663.833	0.05
664.163	0.06
664.492	0.05
664.821	0.06
665.15	0.05
665.479	0.05
665.807	0.06
666.136	0.06
666.465	0.06
666.794	0.06
667.122	0.06
667.451	0.06
667.78	0.07
668.108	0.06
668.437	0.07
668.765	0.07
669.093	0.07
669.422	0.07
669.75	0.07
670.078	0.06
670.406	0.07
670.734	0.06
671.062	0.06
671.39	0.06
671.718	0.07
672.046	0.07
672.374	0.06
672.702	0.06
673.029	0.06
673.357	0.06
673.685	0.07
674.012	0.06
674.34	0.06
674.667	0.07
674.995	0.06
675.322	0.07
675.649	0.06
675.977	0.06
676.304	0.06
676.631	0.06
676.958	0.06
677.285	0.06
677.612	0.06
677.939	0.06
678.266	0.06
678.593	0.06
678.92	0.06
679.246	0.06
679.573	0.06
679.9	0.06
680.226	0.06
680.553	0.05
680.879	0.06
681.206	0.07
681.532	0.06
681.858	0.06
682.184	0.07
682.511	0.07
682.837	0.06
683.163	0.07
683.489	0.07
683.815	0.06
684.141	0.06
684.467	0.07
684.793	0.06
685.118	0.06
685.444	0.07
685.77	0.06
686.095	0.07
686.421	0.06
686.746	0.07
687.072	0.06
687.397	0.05
687.723	0.06
688.048	0.06
688.373	0.06
688.698	0.06
689.023	0.06
689.349	0.05
689.674	0.06
689.999	0.06
690.323	0.05
690.648	0.05
690.973	0.05
691.298	0.05
691.623	0.06
691.947	0.05
692.272	0.05
692.596	0.05
692.921	0.06
693.245	0.05
693.57	0.06
693.894	0.06
694.218	0.06
694.543	0.06
694.867	0.06
695.191	0.05
695.515	0.06
695.839	0.05
696.163	0.06
696.487	0.06
696.811	0.06
697.135	0.06
697.458	0.06
697.782	0.06
698.106	0.06
698.429	0.06
698.753	0.05
699.076	0.06
699.4	0.06
699.723	0.06
700.046	0.05
700.37	0.06
700.693	0.06
701.016	0.05
701.339	0.06
701.662	0.07
701.985	0.06
702.308	0.06
702.631	0.06
702.954	0.06
703.277	0.06
703.599	0.06
703.922	0.05
704.245	0.05
704.567	0.05
704.89	0.05
705.212	0.05
705.535	0.05
705.857	0.05
706.179	0.04
706.502	0.05
706.824	0.04
707.146	0.05
707.468	0.05
707.79	0.05
708.112	0.06
708.434	0.04
708.756	0.05
709.078	0.05
709.399	0.05
709.721	0.05
710.043	0.06
710.364	0.05
710.686	0.06
711.007	0.05
711.329	0.05
711.65	0.05
711.972	0.05
712.293	0.06
712.614	0.06
712.935	0.06
713.256	0.06
713.577	0.06
713.898	0.06
714.219	0.06
714.54	0.06
714.861	0.05
715.182	0.06
715.503	0.06
715.823	0.05
716.144	0.05
716.464	0.04
716.785	0.05
717.105	0.05
717.426	0.05
717.746	0.05
718.066	0.04
718.387	0.05
718.707	0.04
719.027	0.05
719.347	0.04
719.667	0.05
719.987	0.04
720.307	0.04
720.627	0.04
720.947	0.04
721.266	0.04
721.586	0.04
721.906	0.04
722.225	0.04
722.545	0.04
722.864	0.04
