Data from 12-12-AQDScycling_Absorbance__748__00748.txt Node

Date: Tue Dec 12 14:03:44 EST 2023
User: kyuminlee
Spectrometer: FLMS00943
Trigger mode: 0
Integration Time (sec): 1.000000E-1
Scans to average: 1
Electric dark correction enabled: true
Nonlinearity correction enabled: false
Boxcar width: 0
XAxis mode: Wavelengths
Number of Pixels in Spectrum: 2048
>>>>>Begin Spectral Data<<<<<
179.651	1.27
180.037	1.27
180.424	1.27
180.81	0.82
181.197	0.2
181.583	-0
181.97	-0.42
182.356	0.12
182.743	-0
183.129	-0.04
183.515	2.28
183.901	-2.48
184.288	-0
184.674	-0
185.06	-0
185.446	-0.17
185.832	-0
186.218	0.79
186.604	-0
186.99	-0
187.376	-0
187.762	-0.26
188.148	0.58
188.534	0.02
188.92	0.04
189.305	0.06
189.691	0.31
190.077	0.16
190.463	0.16
190.848	0.07
191.234	0.03
191.619	-0.04
192.005	0.09
192.391	0.16
192.776	0.24
193.161	0.16
193.547	0.18
193.932	0.01
194.318	0.09
194.703	0.08
195.088	0.18
195.473	0.22
195.859	0.24
196.244	0.11
196.629	0.1
197.014	0.1
197.399	0.18
197.784	0.18
198.169	0.12
198.554	0.33
198.939	0.12
199.324	0.06
199.709	0.07
200.094	0.18
200.478	0.12
200.863	0.08
201.248	0.15
201.633	0.13
202.017	0.08
202.402	0.15
202.787	0.08
203.171	0.08
203.556	0.17
203.94	0.15
204.325	0.24
204.709	0.19
205.093	0.09
205.478	0.11
205.862	0.01
206.246	0.23
206.631	0.19
207.015	0.09
207.399	0.23
207.783	0.13
208.167	0.12
208.551	0.2
208.935	0.2
209.319	0.15
209.703	0.25
210.087	0.12
210.471	-0
210.855	0.15
211.239	0.36
211.623	0.3
212.007	0.28
212.39	0.17
212.774	0.17
213.158	0.05
213.541	0.17
213.925	0.18
214.309	0.4
214.692	0.25
215.076	0.25
215.459	0.18
215.842	0.14
216.226	0.25
216.609	0.36
216.993	0.15
217.376	0.27
217.759	0.21
218.142	0.27
218.525	0.43
218.909	0.41
219.292	0.38
219.675	0.38
220.058	0.47
220.441	0.46
220.824	0.64
221.207	0.54
221.59	0.42
221.973	0.61
222.355	0.53
222.738	0.76
223.121	0.51
223.504	0.54
223.886	0.79
224.269	0.64
224.652	0.64
225.034	0.79
225.417	0.87
225.799	0.77
226.182	0.83
226.564	0.78
226.947	0.84
227.329	0.86
227.711	1.01
228.094	1.1
228.476	1.01
228.858	0.78
229.24	0.8
229.623	0.97
230.005	0.79
230.387	0.78
230.769	0.81
231.151	0.95
231.533	0.87
231.915	1.07
232.297	1.04
232.679	0.93
233.061	1
233.442	1.15
233.824	0.99
234.206	1.12
234.588	1.05
234.969	1.05
235.351	1
235.733	1.15
236.114	1.14
236.496	1.1
236.877	1.09
237.259	1.12
237.64	1.21
238.022	1
238.403	1.05
238.784	1
239.165	0.9
239.547	1.16
239.928	1.07
240.309	1.04
240.69	1.05
241.071	1.29
241.452	1.03
241.834	1.14
242.215	1.25
242.595	1.1
242.976	1.16
243.357	1.02
243.738	1.14
244.119	1.33
244.5	1.14
244.881	1.17
245.261	1.19
245.642	1.2
246.023	1.06
246.403	1.14
246.784	1.44
247.164	1.22
247.545	1.26
247.925	1.36
248.306	1.28
248.686	1.56
249.067	1.18
249.447	1.44
249.827	1.63
250.207	1.44
250.588	1.17
250.968	1.4
251.348	1.34
251.728	1.4
252.108	1.38
252.488	1.39
252.868	1.35
253.248	1.36
253.628	1.37
254.008	1.44
254.388	1.45
254.768	1.5
255.147	1.26
255.527	1.39
255.907	1.25
256.287	1.4
256.666	1.4
257.046	1.39
257.425	1.52
257.805	1.33
258.184	1.37
258.564	1.28
258.943	1.36
259.323	1.46
259.702	1.46
260.081	1.4
260.461	1.45
260.84	1.48
261.219	1.71
261.598	1.5
261.977	1.49
262.356	1.53
262.736	1.52
263.115	1.59
263.494	1.27
263.873	1.48
264.251	1.42
264.63	1.53
265.009	1.42
265.388	1.49
265.767	1.38
266.145	1.4
266.524	1.46
266.903	1.36
267.281	1.42
267.66	1.49
268.039	1.45
268.417	1.35
268.796	1.45
269.174	1.47
269.552	1.33
269.931	1.4
270.309	1.35
270.687	1.67
271.066	1.63
271.444	1.44
271.822	1.73
272.2	1.46
272.578	1.51
272.956	1.4
273.334	1.4
273.712	1.52
274.09	1.32
274.468	1.42
274.846	1.41
275.224	1.41
275.602	1.43
275.98	1.67
276.357	1.47
276.735	1.47
277.113	1.44
277.49	1.33
277.868	1.31
278.246	1.45
278.623	1.4
279.001	1.39
279.378	1.3
279.756	1.38
280.133	1.55
280.51	1.27
280.888	1.47
281.265	1.43
281.642	1.45
282.019	1.62
282.396	1.56
282.773	1.59
283.151	1.63
283.528	1.65
283.905	1.43
284.282	1.51
284.659	1.5
285.035	1.46
285.412	1.25
285.789	1.42
286.166	1.56
286.543	1.51
286.919	1.52
287.296	1.31
287.673	1.88
288.049	1.58
288.426	1.59
288.802	1.54
289.179	1.5
289.555	1.63
289.932	1.43
290.308	1.31
290.684	1.31
291.061	1.45
291.437	1.88
291.813	1.4
292.189	1.39
292.565	1.3
292.942	1.39
293.318	1.29
293.694	1.47
294.07	1.26
294.446	1.5
294.822	1.55
295.197	1.46
295.573	1.4
295.949	1.47
296.325	1.43
296.701	1.61
297.076	1.53
297.452	1.53
297.828	1.45
298.203	1.46
298.579	1.42
298.954	1.59
299.33	1.4
299.705	1.5
300.081	1.63
300.456	1.55
300.831	1.46
301.206	1.46
301.582	1.53
301.957	1.37
302.332	1.58
302.707	1.47
303.082	1.46
303.457	1.49
303.832	1.52
304.207	1.51
304.582	1.38
304.957	1.48
305.332	1.53
305.707	1.5
306.082	1.56
306.456	1.62
306.831	1.46
307.206	1.55
307.58	1.47
307.955	1.41
308.33	1.4
308.704	1.43
309.079	1.38
309.453	1.45
309.828	1.48
310.202	1.36
310.576	1.41
310.951	1.63
311.325	1.5
311.699	1.37
312.073	1.38
312.447	1.44
312.821	1.4
313.196	1.54
313.57	1.35
313.944	1.42
314.317	1.47
314.691	1.47
315.065	1.48
315.439	1.54
315.813	1.48
316.187	1.44
316.56	1.46
316.934	1.51
317.308	1.41
317.681	1.59
318.055	1.48
318.428	1.48
318.802	1.49
319.175	1.5
319.549	1.47
319.922	1.42
320.295	1.43
320.669	1.55
321.042	1.44
321.415	1.74
321.788	1.51
322.162	1.43
322.535	1.51
322.908	1.71
323.281	1.48
323.654	1.54
324.027	1.48
324.4	1.6
324.773	1.41
325.145	1.57
325.518	1.44
325.891	1.44
326.264	1.61
326.636	1.56
327.009	1.45
327.382	1.47
327.754	1.52
328.127	1.36
328.499	1.66
328.872	1.63
329.244	1.56
329.616	1.45
329.989	1.53
330.361	1.43
330.733	1.42
331.106	1.45
331.478	1.53
331.85	1.44
332.222	1.46
332.594	1.43
332.966	1.61
333.338	1.68
333.71	1.49
334.082	1.64
334.454	1.44
334.826	1.63
335.197	1.8
335.569	1.36
335.941	1.31
336.312	1.45
336.684	1.43
337.056	1.46
337.427	1.57
337.799	1.55
338.17	1.39
338.542	1.39
338.913	1.57
339.284	1.64
339.656	1.52
340.027	1.56
340.398	1.54
340.769	1.5
341.141	1.72
341.512	1.54
341.883	1.53
342.254	1.48
342.625	1.54
342.996	1.55
343.367	1.54
343.738	1.54
344.108	1.5
344.479	1.51
344.85	1.4
345.221	1.47
345.591	1.33
345.962	1.45
346.333	1.51
346.703	1.3
347.074	1.4
347.444	1.26
347.815	1.4
348.185	1.43
348.556	1.38
348.926	1.21
349.296	1.41
349.666	1.39
350.037	1.21
350.407	1.25
350.777	1.19
351.147	1.25
351.517	1.33
351.887	1.43
352.257	1.49
352.627	1.28
352.997	1.33
353.367	1.29
353.737	1.39
354.106	1.48
354.476	1.3
354.846	1.46
355.216	1.37
355.585	1.43
355.955	1.37
356.324	1.39
356.694	1.4
357.063	1.35
357.433	1.25
357.802	1.33
358.171	1.39
358.541	1.36
358.91	1.3
359.279	1.43
359.648	1.27
360.017	1.36
360.387	1.34
360.756	1.28
361.125	1.33
361.494	1.29
361.863	1.26
362.231	1.17
362.6	1.27
362.969	1.27
363.338	1.32
363.707	1.26
364.075	1.37
364.444	1.19
364.813	1.32
365.181	1.22
365.55	1.27
365.918	1.26
366.287	1.31
366.655	1.34
367.024	1.28
367.392	1.26
367.76	1.18
368.128	1.23
368.497	1.3
368.865	1.26
369.233	1.26
369.601	1.21
369.969	1.21
370.337	1.28
370.705	1.23
371.073	1.22
371.441	1.18
371.809	1.26
372.177	1.21
372.544	1.27
372.912	1.21
373.28	1.21
373.647	1.34
374.015	1.27
374.383	1.43
374.75	1.36
375.118	1.24
375.485	1.27
375.853	1.28
376.22	1.29
376.587	1.27
376.955	1.3
377.322	1.31
377.689	1.27
378.056	1.31
378.423	1.27
378.79	1.27
379.157	1.28
379.524	1.31
379.891	1.27
380.258	1.37
380.625	1.26
380.992	1.26
381.359	1.28
381.726	1.41
382.092	1.28
382.459	1.3
382.826	1.34
383.192	1.31
383.559	1.29
383.925	1.42
384.292	1.33
384.658	1.39
385.025	1.34
385.391	1.71
385.757	1.38
386.123	1.53
386.49	1.42
386.856	1.39
387.222	1.45
387.588	1.38
387.954	1.47
388.32	1.48
388.686	1.4
389.052	1.36
389.418	1.43
389.784	1.29
390.15	1.49
390.515	1.25
390.881	1.47
391.247	1.36
391.613	1.5
391.978	1.37
392.344	1.59
392.709	1.32
393.075	1.35
393.44	1.52
393.806	1.44
394.171	1.35
394.536	1.47
394.902	1.44
395.267	1.33
395.632	1.36
395.997	1.36
396.362	1.38
396.727	1.48
397.092	1.35
397.457	1.37
397.822	1.36
398.187	1.5
398.552	1.4
398.917	1.42
399.282	1.34
399.646	1.35
400.011	1.42
400.376	1.28
400.74	1.32
401.105	1.3
401.47	1.33
401.834	1.31
402.199	1.28
402.563	1.35
402.927	1.25
403.292	1.42
403.656	1.29
404.02	1.29
404.384	1.36
404.749	1.26
405.113	1.27
405.477	1.31
405.841	1.21
406.205	1.23
406.569	1.25
406.933	1.19
407.296	1.21
407.66	1.21
408.024	1.23
408.388	1.28
408.752	1.18
409.115	1.19
409.479	1.25
409.842	1.16
410.206	1.14
410.569	1.19
410.933	1.11
411.296	1.1
411.66	1.18
412.023	1.15
412.386	1.15
412.749	1.09
413.113	1.14
413.476	1.07
413.839	1.09
414.202	1.09
414.565	1.08
414.928	1.06
415.291	1.07
415.654	1.07
416.017	1.14
416.38	1.04
416.742	1
417.105	1.02
417.468	1.1
417.83	1.01
418.193	1.1
418.556	1.04
418.918	1.08
419.281	1.02
419.643	1.1
420.005	1.06
420.368	1.06
420.73	1.03
421.092	1.01
421.455	1.08
421.817	0.99
422.179	0.99
422.541	1.08
422.903	1.03
423.265	1.05
423.627	0.97
423.989	1.02
424.351	0.99
424.713	1.05
425.075	1
425.436	0.97
425.798	1
426.16	0.99
426.521	1
426.883	0.97
427.245	0.98
427.606	0.97
427.967	0.98
428.329	0.97
428.69	1
429.052	0.94
429.413	0.96
429.774	0.97
430.135	0.94
430.497	0.99
430.858	0.94
431.219	0.98
431.58	0.94
431.941	0.94
432.302	0.93
432.663	0.92
433.024	0.97
433.384	0.96
433.745	0.92
434.106	0.94
434.467	0.93
434.827	0.94
435.188	0.93
435.548	0.96
435.909	0.91
436.269	0.91
436.63	0.89
436.99	0.88
437.351	0.9
437.711	0.92
438.071	0.85
438.431	0.86
438.792	0.87
439.152	0.89
439.512	0.86
439.872	0.89
440.232	0.87
440.592	0.85
440.952	0.87
441.312	0.83
441.671	0.84
442.031	0.86
442.391	0.84
442.751	0.85
443.11	0.83
443.47	0.81
443.83	0.79
444.189	0.81
444.549	0.8
444.908	0.8
445.267	0.81
445.627	0.81
445.986	0.78
446.345	0.76
446.705	0.77
447.064	0.76
447.423	0.76
447.782	0.77
448.141	0.75
448.5	0.73
448.859	0.75
449.218	0.76
449.577	0.75
449.936	0.75
450.295	0.75
450.653	0.73
451.012	0.73
451.371	0.74
451.729	0.71
452.088	0.72
452.447	0.74
452.805	0.7
453.163	0.71
453.522	0.71
453.88	0.7
454.239	0.7
454.597	0.68
454.955	0.67
455.313	0.67
455.671	0.67
456.029	0.66
456.388	0.65
456.746	0.64
457.104	0.64
457.461	0.63
457.819	0.63
458.177	0.62
458.535	0.62
458.893	0.61
459.25	0.6
459.608	0.6
459.966	0.58
460.323	0.59
460.681	0.56
461.038	0.57
461.396	0.56
461.753	0.55
462.111	0.55
462.468	0.54
462.825	0.54
463.182	0.53
463.54	0.53
463.897	0.52
464.254	0.52
464.611	0.51
464.968	0.5
465.325	0.5
465.682	0.51
466.039	0.5
466.395	0.48
466.752	0.49
467.109	0.47
467.466	0.48
467.822	0.47
468.179	0.45
468.535	0.45
468.892	0.45
469.248	0.44
469.605	0.43
469.961	0.43
470.318	0.43
470.674	0.43
471.03	0.42
471.386	0.42
471.743	0.41
472.099	0.4
472.455	0.39
472.811	0.39
473.167	0.39
473.523	0.38
473.879	0.38
474.235	0.38
474.59	0.37
474.946	0.36
475.302	0.37
475.657	0.36
476.013	0.34
476.369	0.34
476.724	0.35
477.08	0.34
477.435	0.33
477.791	0.33
478.146	0.33
478.501	0.33
478.857	0.33
479.212	0.32
479.567	0.31
479.922	0.31
480.277	0.3
480.632	0.3
480.987	0.3
481.342	0.29
481.697	0.28
482.052	0.28
482.407	0.29
482.762	0.27
483.116	0.27
483.471	0.27
483.826	0.26
484.18	0.26
484.535	0.26
484.89	0.25
485.244	0.25
485.598	0.26
485.953	0.25
486.307	0.26
486.661	0.25
487.016	0.24
487.37	0.24
487.724	0.24
488.078	0.24
488.432	0.24
488.786	0.23
489.14	0.23
489.494	0.23
489.848	0.22
490.202	0.22
490.556	0.22
490.91	0.22
491.263	0.21
491.617	0.22
491.971	0.21
492.324	0.21
492.678	0.21
493.031	0.21
493.385	0.21
493.738	0.2
494.091	0.2
494.445	0.21
494.798	0.2
495.151	0.21
495.504	0.2
495.857	0.2
496.21	0.2
496.564	0.19
496.916	0.2
497.269	0.19
497.622	0.2
497.975	0.19
498.328	0.19
498.681	0.18
499.033	0.19
499.386	0.18
499.739	0.18
500.091	0.18
500.444	0.17
500.796	0.17
501.149	0.17
501.501	0.17
501.854	0.17
502.206	0.17
502.558	0.18
502.91	0.17
503.263	0.17
503.615	0.18
503.967	0.17
504.319	0.18
504.671	0.18
505.023	0.17
505.375	0.16
505.726	0.17
506.078	0.17
506.43	0.17
506.782	0.16
507.133	0.17
507.485	0.17
507.837	0.18
508.188	0.17
508.54	0.18
508.891	0.17
509.243	0.16
509.594	0.17
509.945	0.17
510.296	0.16
510.648	0.17
510.999	0.16
511.35	0.17
511.701	0.17
512.052	0.17
512.403	0.16
512.754	0.17
513.105	0.17
513.456	0.16
513.807	0.16
514.157	0.17
514.508	0.16
514.859	0.16
515.209	0.16
515.56	0.16
515.91	0.16
516.261	0.16
516.611	0.16
516.962	0.16
517.312	0.16
517.662	0.16
518.013	0.16
518.363	0.16
518.713	0.17
519.063	0.17
519.413	0.17
519.763	0.17
520.113	0.16
520.463	0.17
520.813	0.17
521.163	0.17
521.512	0.17
521.862	0.17
522.212	0.17
522.562	0.17
522.911	0.17
523.261	0.16
523.61	0.17
523.96	0.17
524.309	0.18
524.658	0.17
525.008	0.17
525.357	0.17
525.706	0.17
526.056	0.16
526.405	0.17
526.754	0.17
527.103	0.16
527.452	0.17
527.801	0.17
528.15	0.17
528.499	0.17
528.847	0.17
529.196	0.18
529.545	0.17
529.893	0.17
530.242	0.17
530.591	0.18
530.939	0.17
531.288	0.17
531.636	0.18
531.985	0.18
532.333	0.18
532.681	0.18
533.029	0.18
533.378	0.17
533.726	0.17
534.074	0.18
534.422	0.18
534.77	0.18
535.118	0.18
535.466	0.17
535.814	0.17
536.162	0.18
536.509	0.19
536.857	0.17
537.205	0.19
537.552	0.18
537.9	0.17
538.248	0.17
538.595	0.18
538.943	0.18
539.29	0.18
539.637	0.18
539.985	0.18
540.332	0.17
540.679	0.18
541.026	0.17
541.373	0.18
541.721	0.18
542.068	0.18
542.415	0.18
542.762	0.18
543.108	0.17
543.455	0.17
543.802	0.17
544.149	0.17
544.496	0.17
544.842	0.16
545.189	0.17
545.535	0.17
545.882	0.17
546.228	0.16
546.575	0.16
546.921	0.16
547.267	0.17
547.614	0.17
547.96	0.17
548.306	0.17
548.652	0.16
548.998	0.17
549.344	0.17
549.69	0.16
550.036	0.17
550.382	0.17
550.728	0.17
551.074	0.17
551.42	0.18
551.765	0.17
552.111	0.18
552.457	0.18
552.802	0.17
553.148	0.17
553.493	0.17
553.839	0.17
554.184	0.17
554.529	0.17
554.875	0.18
555.22	0.17
555.565	0.18
555.91	0.17
556.255	0.19
556.6	0.19
556.945	0.17
557.29	0.18
557.635	0.18
557.98	0.18
558.325	0.18
558.67	0.18
559.014	0.18
559.359	0.19
559.704	0.18
560.048	0.17
560.393	0.18
560.737	0.16
561.082	0.18
561.426	0.17
561.77	0.18
562.115	0.17
562.459	0.18
562.803	0.17
563.147	0.17
563.491	0.17
563.835	0.17
564.179	0.18
564.523	0.17
564.867	0.17
565.211	0.18
565.555	0.18
565.899	0.18
566.242	0.18
566.586	0.18
566.93	0.18
567.273	0.18
567.617	0.18
567.96	0.18
568.304	0.19
568.647	0.18
568.99	0.18
569.334	0.19
569.677	0.18
570.02	0.18
570.363	0.18
570.706	0.18
571.049	0.18
571.392	0.18
571.735	0.18
572.078	0.19
572.421	0.2
572.764	0.18
573.106	0.18
573.449	0.17
573.792	0.18
574.134	0.19
574.477	0.18
574.819	0.18
575.162	0.18
575.504	0.18
575.847	0.18
576.189	0.18
576.531	0.18
576.873	0.18
577.215	0.18
577.558	0.18
577.9	0.17
578.242	0.18
578.584	0.18
578.926	0.17
579.267	0.18
579.609	0.18
579.951	0.18
580.293	0.18
580.634	0.18
580.976	0.18
581.318	0.18
581.659	0.18
582.001	0.18
582.342	0.18
582.683	0.18
583.025	0.18
583.366	0.17
583.707	0.18
584.049	0.19
584.39	0.18
584.731	0.17
585.072	0.17
585.413	0.18
585.754	0.18
586.095	0.19
586.435	0.18
586.776	0.18
587.117	0.17
587.458	0.18
587.798	0.18
588.139	0.18
588.48	0.17
588.82	0.17
589.161	0.18
589.501	0.17
589.841	0.17
590.182	0.18
590.522	0.17
590.862	0.18
591.202	0.18
591.542	0.17
591.882	0.18
592.222	0.17
592.562	0.17
592.902	0.17
593.242	0.17
593.582	0.19
593.922	0.17
594.261	0.17
594.601	0.17
594.941	0.17
595.28	0.17
595.62	0.17
595.959	0.17
596.299	0.17
596.638	0.17
596.977	0.17
597.317	0.18
597.656	0.18
597.995	0.18
598.334	0.18
598.673	0.18
599.012	0.18
599.351	0.18
599.69	0.18
600.029	0.19
600.368	0.18
600.707	0.18
601.046	0.18
601.384	0.19
601.723	0.18
602.061	0.18
602.4	0.19
602.738	0.18
603.077	0.18
603.415	0.17
603.754	0.18
604.092	0.18
604.43	0.17
604.768	0.18
605.107	0.18
605.445	0.17
605.783	0.18
606.121	0.17
606.459	0.17
606.796	0.17
607.134	0.17
607.472	0.17
607.81	0.17
608.148	0.17
608.485	0.18
608.823	0.18
609.16	0.18
609.498	0.17
609.835	0.17
610.173	0.17
610.51	0.18
610.847	0.18
611.185	0.18
611.522	0.18
611.859	0.17
612.196	0.18
612.533	0.18
612.87	0.18
613.207	0.17
613.544	0.18
613.881	0.18
614.217	0.18
614.554	0.17
614.891	0.18
615.228	0.18
615.564	0.18
615.901	0.19
616.237	0.18
616.574	0.18
616.91	0.19
617.246	0.18
617.583	0.18
617.919	0.19
618.255	0.18
618.591	0.18
618.927	0.17
619.263	0.18
619.599	0.18
619.935	0.18
620.271	0.18
620.607	0.18
620.943	0.18
621.279	0.18
621.614	0.18
621.95	0.18
622.286	0.17
622.621	0.18
622.957	0.17
623.292	0.17
623.627	0.17
623.963	0.17
624.298	0.18
624.633	0.17
624.968	0.17
625.304	0.17
625.639	0.17
625.974	0.17
626.309	0.17
626.644	0.17
626.979	0.17
627.313	0.17
627.648	0.16
627.983	0.17
628.318	0.16
628.652	0.16
628.987	0.16
629.321	0.16
629.656	0.15
629.99	0.15
630.325	0.16
630.659	0.17
630.993	0.16
631.327	0.16
631.662	0.15
631.996	0.15
632.33	0.15
632.664	0.16
632.998	0.15
633.332	0.15
633.666	0.15
633.999	0.15
634.333	0.15
634.667	0.15
635.001	0.15
635.334	0.15
635.668	0.15
636.001	0.15
636.335	0.15
636.668	0.15
637.001	0.14
637.335	0.15
637.668	0.16
638.001	0.15
638.334	0.15
638.668	0.15
639.001	0.15
639.334	0.15
639.667	0.15
639.999	0.15
640.332	0.15
640.665	0.15
640.998	0.15
641.331	0.15
641.663	0.15
641.996	0.15
642.328	0.16
642.661	0.16
642.993	0.15
643.326	0.15
643.658	0.15
643.99	0.15
644.323	0.15
644.655	0.16
644.987	0.15
645.319	0.15
645.651	0.15
645.983	0.15
646.315	0.15
646.647	0.16
646.979	0.15
647.31	0.16
647.642	0.15
647.974	0.15
648.305	0.16
648.637	0.15
648.968	0.15
649.3	0.15
649.631	0.15
649.963	0.15
650.294	0.15
650.625	0.15
650.957	0.15
651.288	0.16
651.619	0.15
651.95	0.15
652.281	0.16
652.612	0.15
652.943	0.15
653.274	0.16
653.604	0.15
653.935	0.15
654.266	0.15
654.596	0.15
654.927	0.15
655.258	0.15
655.588	0.16
655.918	0.15
656.249	0.13
656.579	0.15
656.909	0.15
657.24	0.14
657.57	0.15
657.9	0.15
658.23	0.14
658.56	0.15
658.89	0.14
659.22	0.14
659.55	0.14
659.88	0.15
660.209	0.15
660.539	0.15
660.869	0.15
661.198	0.15
661.528	0.14
661.857	0.14
662.187	0.15
662.516	0.14
662.846	0.14
663.175	0.14
663.504	0.14
663.833	0.14
664.163	0.14
664.492	0.13
664.821	0.14
665.15	0.14
665.479	0.14
665.807	0.13
666.136	0.14
666.465	0.14
666.794	0.14
667.122	0.14
667.451	0.13
667.78	0.14
668.108	0.15
668.437	0.14
668.765	0.15
669.093	0.15
669.422	0.15
669.75	0.14
670.078	0.14
670.406	0.14
670.734	0.14
671.062	0.14
671.39	0.14
671.718	0.14
672.046	0.14
672.374	0.14
672.702	0.14
673.029	0.13
673.357	0.14
673.685	0.14
674.012	0.13
674.34	0.13
674.667	0.14
674.995	0.14
675.322	0.14
675.649	0.13
675.977	0.13
676.304	0.14
676.631	0.13
676.958	0.13
677.285	0.13
677.612	0.13
677.939	0.13
678.266	0.13
678.593	0.13
678.92	0.13
679.246	0.12
679.573	0.13
679.9	0.13
680.226	0.13
680.553	0.13
680.879	0.13
681.206	0.13
681.532	0.13
681.858	0.12
682.184	0.13
682.511	0.13
682.837	0.13
683.163	0.14
683.489	0.13
683.815	0.13
684.141	0.13
684.467	0.13
684.793	0.13
685.118	0.12
685.444	0.13
685.77	0.13
686.095	0.13
686.421	0.12
686.746	0.13
687.072	0.13
687.397	0.12
687.723	0.13
688.048	0.13
688.373	0.12
688.698	0.12
689.023	0.12
689.349	0.11
689.674	0.12
689.999	0.12
690.323	0.11
690.648	0.12
690.973	0.11
691.298	0.11
691.623	0.12
691.947	0.12
692.272	0.11
692.596	0.12
692.921	0.12
693.245	0.12
693.57	0.12
693.894	0.13
694.218	0.13
694.543	0.13
694.867	0.12
695.191	0.12
695.515	0.13
695.839	0.12
696.163	0.12
696.487	0.12
696.811	0.12
697.135	0.13
697.458	0.12
697.782	0.12
698.106	0.12
698.429	0.12
698.753	0.12
699.076	0.12
699.4	0.12
699.723	0.12
700.046	0.11
700.37	0.11
700.693	0.12
701.016	0.11
701.339	0.11
701.662	0.12
701.985	0.12
702.308	0.12
702.631	0.1
702.954	0.12
703.277	0.11
703.599	0.12
703.922	0.11
704.245	0.11
704.567	0.11
704.89	0.11
705.212	0.11
705.535	0.1
705.857	0.1
706.179	0.1
706.502	0.1
706.824	0.1
707.146	0.1
707.468	0.11
707.79	0.1
708.112	0.1
708.434	0.11
708.756	0.11
709.078	0.11
709.399	0.1
709.721	0.1
710.043	0.11
710.364	0.1
710.686	0.11
711.007	0.11
711.329	0.11
711.65	0.11
711.972	0.11
712.293	0.11
712.614	0.11
712.935	0.11
713.256	0.11
713.577	0.11
713.898	0.11
714.219	0.11
714.54	0.11
714.861	0.1
715.182	0.11
715.503	0.1
715.823	0.1
716.144	0.1
716.464	0.1
716.785	0.1
717.105	0.1
717.426	0.1
717.746	0.1
718.066	0.09
718.387	0.09
718.707	0.09
719.027	0.09
719.347	0.09
719.667	0.09
719.987	0.08
720.307	0.08
720.627	0.09
720.947	0.09
721.266	0.09
721.586	0.09
721.906	0.08
722.225	0.09
722.545	0.09
722.864	0.08
723.184	0.09
723.503	0.09
723.823	0.1
