Data from 12-12-AQDScycling_Absorbance__272__00272.txt Node

Date: Tue Dec 12 12:05:02 EST 2023
User: kyuminlee
Spectrometer: FLMS00943
Trigger mode: 0
Integration Time (sec): 1.000000E-1
Scans to average: 1
Electric dark correction enabled: true
Nonlinearity correction enabled: false
Boxcar width: 0
XAxis mode: Wavelengths
Number of Pixels in Spectrum: 2048
>>>>>Begin Spectral Data<<<<<
179.651	-0.11
180.037	-0.11
180.424	-0.11
180.81	-0
181.197	0.23
181.583	-0
181.97	-0.08
182.356	-0.13
182.743	-0
183.129	0.39
183.515	0.9
183.901	-2.33
184.288	0.08
184.674	-0
185.06	-0.49
185.446	-0.6
185.832	-1.34
186.218	0.6
186.604	-0
186.99	-0
187.376	0.89
187.762	-0.1
188.148	0.23
188.534	0.68
188.92	0.01
189.305	-0.04
189.691	0.07
190.077	0.21
190.463	0.09
190.848	0.09
191.234	0.06
191.619	0.06
192.005	0.27
192.391	0.1
192.776	0.12
193.161	0.08
193.547	0.13
193.932	0.15
194.318	0.01
194.703	0.1
195.088	0.12
195.473	0.19
195.859	0.16
196.244	0.17
196.629	0.05
197.014	0.07
197.399	0.2
197.784	0.36
198.169	0.1
198.554	0.26
198.939	0.08
199.324	-0.01
199.709	0.14
200.094	0.01
200.478	-0.04
200.863	0.14
201.248	0.2
201.633	0.18
202.017	0.11
202.402	0.34
202.787	0.08
203.171	0.1
203.556	0.11
203.94	0.12
204.325	0.18
204.709	0.15
205.093	0.12
205.478	0.16
205.862	0.06
206.246	0.17
206.631	0.03
207.015	0.13
207.399	0.14
207.783	0.25
208.167	0.11
208.551	0.25
208.935	0.17
209.319	0.2
209.703	0.23
210.087	0.32
210.471	0.15
210.855	0.01
211.239	0.08
211.623	0.24
212.007	0.08
212.39	0.26
212.774	0.14
213.158	0.11
213.541	0.19
213.925	0.2
214.309	0.33
214.692	0.3
215.076	0.16
215.459	0.18
215.842	0.11
216.226	0.15
216.609	0.39
216.993	0.21
217.376	0.43
217.759	0.18
218.142	0.3
218.525	0.59
218.909	0.28
219.292	0.29
219.675	0.35
220.058	0.47
220.441	0.51
220.824	0.46
221.207	0.44
221.59	0.47
221.973	0.54
222.355	0.59
222.738	0.73
223.121	0.55
223.504	0.48
223.886	0.63
224.269	0.66
224.652	0.72
225.034	0.74
225.417	0.69
225.799	0.8
226.182	0.78
226.564	0.83
226.947	0.85
227.329	0.87
227.711	0.97
228.094	0.95
228.476	0.79
228.858	0.83
229.24	0.98
229.623	0.96
230.005	0.8
230.387	0.83
230.769	0.94
231.151	1.04
231.533	0.98
231.915	0.95
232.297	0.92
232.679	1.06
233.061	0.85
233.442	0.93
233.824	1.16
234.206	1.02
234.588	1.1
234.969	1.09
235.351	0.96
235.733	1.18
236.114	1.09
236.496	1.09
236.877	1.08
237.259	1.07
237.64	1.08
238.022	1.03
238.403	1.01
238.784	0.99
239.165	0.93
239.547	1.17
239.928	1.05
240.309	1.1
240.69	1.04
241.071	1.1
241.452	1.21
241.834	0.97
242.215	1.11
242.595	0.96
242.976	1.1
243.357	1.21
243.738	1.02
244.119	1.24
244.5	1.14
244.881	1.15
245.261	1.17
245.642	1.11
246.023	1.18
246.403	1.11
246.784	1.25
247.164	1.31
247.545	1.18
247.925	1.22
248.306	1.28
248.686	1.31
249.067	1.3
249.447	1.23
249.827	1.66
250.207	1.43
250.588	1.35
250.968	1.41
251.348	1.38
251.728	1.47
252.108	1.26
252.488	1.34
252.868	1.36
253.248	1.25
253.628	1.42
254.008	1.58
254.388	1.3
254.768	1.44
255.147	1.34
255.527	1.52
255.907	1.29
256.287	1.33
256.666	1.49
257.046	1.34
257.425	1.49
257.805	1.26
258.184	1.3
258.564	1.38
258.943	1.31
259.323	1.58
259.702	1.58
260.081	1.46
260.461	1.47
260.84	1.37
261.219	1.8
261.598	1.44
261.977	1.4
262.356	1.48
262.736	1.38
263.115	1.65
263.494	1.46
263.873	1.31
264.251	1.42
264.63	1.38
265.009	1.43
265.388	1.42
265.767	1.36
266.145	1.33
266.524	1.42
266.903	1.37
267.281	1.6
267.66	1.46
268.039	1.44
268.417	1.41
268.796	1.33
269.174	1.41
269.552	1.46
269.931	1.36
270.309	1.36
270.687	1.84
271.066	1.52
271.444	1.43
271.822	1.39
272.2	1.45
272.578	1.36
272.956	1.46
273.334	1.3
273.712	1.6
274.09	1.5
274.468	1.39
274.846	1.32
275.224	1.39
275.602	1.47
275.98	1.42
276.357	1.39
276.735	1.54
277.113	1.46
277.49	1.4
277.868	1.35
278.246	1.41
278.623	1.3
279.001	1.37
279.378	1.41
279.756	1.5
280.133	1.57
280.51	1.41
280.888	1.39
281.265	1.38
281.642	1.42
282.019	1.53
282.396	1.49
282.773	1.38
283.151	1.45
283.528	1.46
283.905	1.41
284.282	1.38
284.659	1.5
285.035	1.43
285.412	1.35
285.789	1.54
286.166	1.47
286.543	1.49
286.919	1.5
287.296	1.42
287.673	1.5
288.049	1.59
288.426	1.51
288.802	1.46
289.179	1.44
289.555	1.7
289.932	1.57
290.308	1.39
290.684	1.3
291.061	1.34
291.437	1.46
291.813	1.51
292.189	1.32
292.565	1.31
292.942	1.32
293.318	1.39
293.694	1.41
294.07	1.31
294.446	1.54
294.822	1.88
295.197	1.37
295.573	1.51
295.949	1.5
296.325	1.44
296.701	1.52
297.076	1.48
297.452	1.67
297.828	1.43
298.203	1.52
298.579	1.44
298.954	1.48
299.33	1.47
299.705	1.39
300.081	1.51
300.456	1.55
300.831	1.46
301.206	1.52
301.582	1.69
301.957	1.48
302.332	1.58
302.707	1.42
303.082	1.44
303.457	1.54
303.832	1.5
304.207	1.47
304.582	1.44
304.957	1.48
305.332	1.48
305.707	1.43
306.082	1.47
306.456	1.5
306.831	1.4
307.206	1.48
307.58	1.45
307.955	1.55
308.33	1.43
308.704	1.51
309.079	1.5
309.453	1.58
309.828	1.48
310.202	1.34
310.576	1.37
310.951	1.52
311.325	1.52
311.699	1.48
312.073	1.44
312.447	1.55
312.821	1.43
313.196	1.43
313.57	1.42
313.944	1.38
314.317	1.39
314.691	1.43
315.065	1.5
315.439	1.48
315.813	1.48
316.187	1.41
316.56	1.74
316.934	1.48
317.308	1.39
317.681	1.55
318.055	1.48
318.428	1.55
318.802	1.6
319.175	1.56
319.549	1.5
319.922	1.33
320.295	1.5
320.669	1.58
321.042	1.49
321.415	1.74
321.788	1.54
322.162	1.42
322.535	1.51
322.908	1.53
323.281	1.48
323.654	1.8
324.027	1.46
324.4	1.6
324.773	1.49
325.145	1.56
325.518	1.4
325.891	1.38
326.264	1.67
326.636	1.51
327.009	1.46
327.382	1.57
327.754	1.48
328.127	1.39
328.499	1.55
328.872	1.37
329.244	1.53
329.616	1.51
329.989	1.49
330.361	1.54
330.733	1.45
331.106	1.45
331.478	1.54
331.85	1.58
332.222	1.37
332.594	1.43
332.966	1.49
333.338	1.7
333.71	1.57
334.082	1.75
334.454	1.41
334.826	1.58
335.197	1.73
335.569	1.47
335.941	1.47
336.312	1.43
336.684	1.49
337.056	1.35
337.427	1.54
337.799	1.61
338.17	1.55
338.542	1.49
338.913	1.66
339.284	1.47
339.656	1.52
340.027	1.49
340.398	1.55
340.769	1.53
341.141	1.61
341.512	1.54
341.883	1.56
342.254	1.57
342.625	1.66
342.996	1.53
343.367	1.41
343.738	1.46
344.108	1.49
344.479	1.83
344.85	1.39
345.221	1.69
345.591	1.37
345.962	1.43
346.333	1.4
346.703	1.31
347.074	1.28
347.444	1.3
347.815	1.47
348.185	1.44
348.556	1.31
348.926	1.3
349.296	1.41
349.666	1.34
350.037	1.3
350.407	1.24
350.777	1.36
351.147	1.36
351.517	1.4
351.887	1.36
352.257	1.31
352.627	1.31
352.997	1.29
353.367	1.4
353.737	1.42
354.106	1.24
354.476	1.36
354.846	1.38
355.216	1.35
355.585	1.37
355.955	1.3
356.324	1.32
356.694	1.37
357.063	1.3
357.433	1.34
357.802	1.38
358.171	1.4
358.541	1.3
358.91	1.35
359.279	1.33
359.648	1.26
360.017	1.28
360.387	1.26
360.756	1.24
361.125	1.28
361.494	1.32
361.863	1.25
362.231	1.21
362.6	1.21
362.969	1.27
363.338	1.22
363.707	1.28
364.075	1.23
364.444	1.15
364.813	1.17
365.181	1.24
365.55	1.19
365.918	1.26
366.287	1.31
366.655	1.24
367.024	1.17
367.392	1.2
367.76	1.21
368.128	1.16
368.497	1.18
368.865	1.18
369.233	1.23
369.601	1.18
369.969	1.2
370.337	1.23
370.705	1.21
371.073	1.23
371.441	1.2
371.809	1.18
372.177	1.2
372.544	1.21
372.912	1.19
373.28	1.26
373.647	1.19
374.015	1.28
374.383	1.32
374.75	1.3
375.118	1.14
375.485	1.2
375.853	1.27
376.22	1.2
376.587	1.24
376.955	1.27
377.322	1.17
377.689	1.21
378.056	1.16
378.423	1.21
378.79	1.25
379.157	1.25
379.524	1.25
379.891	1.23
380.258	1.24
380.625	1.25
380.992	1.24
381.359	1.27
381.726	1.42
382.092	1.2
382.459	1.25
382.826	1.28
383.192	1.25
383.559	1.32
383.925	1.38
384.292	1.29
384.658	1.43
385.025	1.34
385.391	1.47
385.757	1.42
386.123	1.41
386.49	1.36
386.856	1.34
387.222	1.35
387.588	1.33
387.954	1.51
388.32	1.43
388.686	1.37
389.052	1.26
389.418	1.4
389.784	1.39
390.15	1.35
390.515	1.25
390.881	1.39
391.247	1.31
391.613	1.38
391.978	1.34
392.344	1.39
392.709	1.35
393.075	1.38
393.44	1.37
393.806	1.47
394.171	1.23
394.536	1.4
394.902	1.39
395.267	1.28
395.632	1.32
395.997	1.26
396.362	1.32
396.727	1.44
397.092	1.4
397.457	1.4
397.822	1.29
398.187	1.36
398.552	1.32
398.917	1.42
399.282	1.26
399.646	1.28
400.011	1.31
400.376	1.22
400.74	1.25
401.105	1.27
401.47	1.26
401.834	1.26
402.199	1.22
402.563	1.2
402.927	1.19
403.292	1.26
403.656	1.28
404.02	1.27
404.384	1.32
404.749	1.21
405.113	1.21
405.477	1.22
405.841	1.23
406.205	1.18
406.569	1.16
406.933	1.18
407.296	1.13
407.66	1.14
408.024	1.12
408.388	1.23
408.752	1.12
409.115	1.17
409.479	1.07
409.842	1.12
410.206	1.14
410.569	1.13
410.933	1.05
411.296	1.06
411.66	1.15
412.023	1.05
412.386	1.07
412.749	1.06
413.113	1.09
413.476	1.03
413.839	1.05
414.202	1.05
414.565	1.05
414.928	1.04
415.291	1.06
415.654	1.05
416.017	1.08
416.38	0.97
416.742	0.99
417.105	1
417.468	1.03
417.83	0.98
418.193	1.06
418.556	0.99
418.918	0.98
419.281	1.02
419.643	1.03
420.005	0.98
420.368	1.01
420.73	1
421.092	0.98
421.455	1.02
421.817	0.92
422.179	0.96
422.541	0.96
422.903	0.98
423.265	1.02
423.627	0.99
423.989	0.9
424.351	0.97
424.713	0.95
425.075	0.93
425.436	0.98
425.798	0.91
426.16	0.93
426.521	0.94
426.883	0.92
427.245	0.93
427.606	0.94
427.967	0.91
428.329	0.91
428.69	0.94
429.052	0.9
429.413	0.94
429.774	0.92
430.135	0.9
430.497	0.9
430.858	0.9
431.219	0.93
431.58	0.88
431.941	0.88
432.302	0.88
432.663	0.9
433.024	0.92
433.384	0.89
433.745	0.87
434.106	0.88
434.467	0.89
434.827	0.88
435.188	0.87
435.548	0.91
435.909	0.84
436.269	0.89
436.63	0.84
436.99	0.85
437.351	0.82
437.711	0.84
438.071	0.84
438.431	0.83
438.792	0.84
439.152	0.85
439.512	0.84
439.872	0.81
440.232	0.8
440.592	0.83
440.952	0.83
441.312	0.78
441.671	0.8
442.031	0.78
442.391	0.8
442.751	0.81
443.11	0.78
443.47	0.77
443.83	0.77
444.189	0.75
444.549	0.77
444.908	0.77
445.267	0.76
445.627	0.75
445.986	0.73
446.345	0.72
446.705	0.74
447.064	0.75
447.423	0.74
447.782	0.72
448.141	0.73
448.5	0.7
448.859	0.73
449.218	0.69
449.577	0.71
449.936	0.7
450.295	0.7
450.653	0.69
451.012	0.7
451.371	0.68
451.729	0.69
452.088	0.68
452.447	0.67
452.805	0.69
453.163	0.68
453.522	0.68
453.88	0.66
454.239	0.65
454.597	0.65
454.955	0.64
455.313	0.62
455.671	0.63
456.029	0.63
456.388	0.61
456.746	0.62
457.104	0.61
457.461	0.6
457.819	0.6
458.177	0.58
458.535	0.58
458.893	0.57
459.25	0.58
459.608	0.57
459.966	0.56
460.323	0.54
460.681	0.54
461.038	0.54
461.396	0.53
461.753	0.53
462.111	0.53
462.468	0.51
462.825	0.49
463.182	0.51
463.54	0.51
463.897	0.5
464.254	0.48
464.611	0.48
464.968	0.48
465.325	0.48
465.682	0.48
466.039	0.47
466.395	0.46
466.752	0.45
467.109	0.44
467.466	0.45
467.822	0.45
468.179	0.43
468.535	0.44
468.892	0.43
469.248	0.42
469.605	0.42
469.961	0.41
470.318	0.42
470.674	0.41
471.03	0.4
471.386	0.4
471.743	0.39
472.099	0.38
472.455	0.38
472.811	0.37
473.167	0.38
473.523	0.36
473.879	0.35
474.235	0.34
474.59	0.35
474.946	0.34
475.302	0.34
475.657	0.34
476.013	0.34
476.369	0.33
476.724	0.33
477.08	0.33
477.435	0.32
477.791	0.31
478.146	0.31
478.501	0.31
478.857	0.3
479.212	0.3
479.567	0.3
479.922	0.29
480.277	0.29
480.632	0.28
480.987	0.29
481.342	0.28
481.697	0.27
482.052	0.27
482.407	0.27
482.762	0.26
483.116	0.26
483.471	0.25
483.826	0.25
484.18	0.25
484.535	0.25
484.89	0.25
485.244	0.25
485.598	0.24
485.953	0.24
486.307	0.24
486.661	0.24
487.016	0.24
487.37	0.23
487.724	0.23
488.078	0.23
488.432	0.22
488.786	0.22
489.14	0.22
489.494	0.21
489.848	0.21
490.202	0.21
490.556	0.21
490.91	0.21
491.263	0.21
491.617	0.21
491.971	0.2
492.324	0.2
492.678	0.2
493.031	0.21
493.385	0.2
493.738	0.2
494.091	0.19
494.445	0.19
494.798	0.19
495.151	0.19
495.504	0.19
495.857	0.19
496.21	0.19
496.564	0.19
496.916	0.19
497.269	0.17
497.622	0.18
497.975	0.18
498.328	0.19
498.681	0.19
499.033	0.18
499.386	0.19
499.739	0.18
500.091	0.18
500.444	0.18
500.796	0.17
501.149	0.17
501.501	0.17
501.854	0.17
502.206	0.17
502.558	0.17
502.91	0.17
503.263	0.17
503.615	0.17
503.967	0.17
504.319	0.17
504.671	0.16
505.023	0.16
505.375	0.16
505.726	0.16
506.078	0.16
506.43	0.16
506.782	0.16
507.133	0.16
507.485	0.16
507.837	0.17
508.188	0.16
508.54	0.16
508.891	0.17
509.243	0.15
509.594	0.16
509.945	0.16
510.296	0.15
510.648	0.16
510.999	0.15
511.35	0.16
511.701	0.15
512.052	0.15
512.403	0.16
512.754	0.16
513.105	0.15
513.456	0.15
513.807	0.15
514.157	0.15
514.508	0.16
514.859	0.15
515.209	0.16
515.56	0.15
515.91	0.15
516.261	0.16
516.611	0.15
516.962	0.15
517.312	0.15
517.662	0.15
518.013	0.15
518.363	0.15
518.713	0.15
519.063	0.15
519.413	0.15
519.763	0.15
520.113	0.15
520.463	0.15
520.813	0.15
521.163	0.16
521.512	0.15
521.862	0.15
522.212	0.15
522.562	0.16
522.911	0.15
523.261	0.15
523.61	0.16
523.96	0.15
524.309	0.16
524.658	0.16
525.008	0.15
525.357	0.15
525.706	0.16
526.056	0.15
526.405	0.15
526.754	0.15
527.103	0.15
527.452	0.15
527.801	0.16
528.15	0.15
528.499	0.15
528.847	0.15
529.196	0.16
529.545	0.16
529.893	0.16
530.242	0.16
530.591	0.16
530.939	0.16
531.288	0.16
531.636	0.17
531.985	0.16
532.333	0.16
532.681	0.16
533.029	0.15
533.378	0.17
533.726	0.16
534.074	0.17
534.422	0.16
534.77	0.16
535.118	0.16
535.466	0.16
535.814	0.16
536.162	0.16
536.509	0.16
536.857	0.15
537.205	0.17
537.552	0.17
537.9	0.16
538.248	0.16
538.595	0.16
538.943	0.16
539.29	0.17
539.637	0.16
539.985	0.16
540.332	0.16
540.679	0.16
541.026	0.15
541.373	0.17
541.721	0.16
542.068	0.16
542.415	0.16
542.762	0.15
543.108	0.15
543.455	0.15
543.802	0.15
544.149	0.14
544.496	0.15
544.842	0.15
545.189	0.14
545.535	0.15
545.882	0.15
546.228	0.14
546.575	0.14
546.921	0.15
547.267	0.15
547.614	0.15
547.96	0.15
548.306	0.15
548.652	0.14
548.998	0.15
549.344	0.14
549.69	0.15
550.036	0.15
550.382	0.16
550.728	0.15
551.074	0.16
551.42	0.15
551.765	0.16
552.111	0.15
552.457	0.16
552.802	0.16
553.148	0.16
553.493	0.16
553.839	0.16
554.184	0.16
554.529	0.16
554.875	0.17
555.22	0.16
555.565	0.16
555.91	0.16
556.255	0.17
556.6	0.17
556.945	0.16
557.29	0.16
557.635	0.17
557.98	0.16
558.325	0.17
558.67	0.16
559.014	0.17
559.359	0.16
559.704	0.16
560.048	0.15
560.393	0.16
560.737	0.16
561.082	0.16
561.426	0.15
561.77	0.16
562.115	0.16
562.459	0.15
562.803	0.16
563.147	0.16
563.491	0.16
563.835	0.16
564.179	0.16
564.523	0.15
564.867	0.16
565.211	0.16
565.555	0.16
565.899	0.17
566.242	0.17
566.586	0.15
566.93	0.16
567.273	0.17
567.617	0.17
567.96	0.17
568.304	0.17
568.647	0.16
568.99	0.16
569.334	0.17
569.677	0.16
570.02	0.16
570.363	0.16
570.706	0.16
571.049	0.15
571.392	0.16
571.735	0.16
572.078	0.16
572.421	0.16
572.764	0.16
573.106	0.16
573.449	0.15
573.792	0.15
574.134	0.15
574.477	0.16
574.819	0.16
575.162	0.16
575.504	0.16
575.847	0.16
576.189	0.17
576.531	0.16
576.873	0.16
577.215	0.16
577.558	0.17
577.9	0.16
578.242	0.16
578.584	0.16
578.926	0.16
579.267	0.16
579.609	0.15
579.951	0.16
580.293	0.16
580.634	0.16
580.976	0.16
581.318	0.16
581.659	0.15
582.001	0.16
582.342	0.15
582.683	0.17
583.025	0.15
583.366	0.16
583.707	0.16
584.049	0.16
584.39	0.15
584.731	0.16
585.072	0.16
585.413	0.16
585.754	0.16
586.095	0.16
586.435	0.16
586.776	0.17
587.117	0.16
587.458	0.16
587.798	0.17
588.139	0.16
588.48	0.16
588.82	0.16
589.161	0.15
589.501	0.15
589.841	0.16
590.182	0.16
590.522	0.16
590.862	0.16
591.202	0.16
591.542	0.16
591.882	0.15
592.222	0.15
592.562	0.16
592.902	0.15
593.242	0.15
593.582	0.16
593.922	0.16
594.261	0.16
594.601	0.16
594.941	0.16
595.28	0.16
595.62	0.16
595.959	0.15
596.299	0.15
596.638	0.16
596.977	0.15
597.317	0.16
597.656	0.16
597.995	0.15
598.334	0.17
598.673	0.15
599.012	0.15
599.351	0.16
599.69	0.15
600.029	0.15
600.368	0.16
600.707	0.15
601.046	0.16
601.384	0.16
601.723	0.16
602.061	0.15
602.4	0.16
602.738	0.16
603.077	0.16
603.415	0.15
603.754	0.16
604.092	0.16
604.43	0.15
604.768	0.16
605.107	0.16
605.445	0.15
605.783	0.15
606.121	0.15
606.459	0.16
606.796	0.15
607.134	0.15
607.472	0.15
607.81	0.16
608.148	0.15
608.485	0.16
608.823	0.15
609.16	0.15
609.498	0.15
609.835	0.15
610.173	0.15
610.51	0.16
610.847	0.15
611.185	0.16
611.522	0.16
611.859	0.15
612.196	0.16
612.533	0.16
612.87	0.17
613.207	0.16
613.544	0.16
613.881	0.17
614.217	0.17
614.554	0.16
614.891	0.16
615.228	0.16
615.564	0.16
615.901	0.16
616.237	0.15
616.574	0.15
616.91	0.17
617.246	0.16
617.583	0.17
617.919	0.17
618.255	0.16
618.591	0.17
618.927	0.17
619.263	0.16
619.599	0.17
619.935	0.16
620.271	0.16
620.607	0.16
620.943	0.16
621.279	0.17
621.614	0.16
621.95	0.16
622.286	0.15
622.621	0.15
622.957	0.16
623.292	0.15
623.627	0.14
623.963	0.15
624.298	0.15
624.633	0.15
624.968	0.15
625.304	0.14
625.639	0.14
625.974	0.15
626.309	0.14
626.644	0.14
626.979	0.15
627.313	0.14
627.648	0.15
627.983	0.15
628.318	0.15
628.652	0.13
628.987	0.14
629.321	0.15
629.656	0.14
629.99	0.14
630.325	0.15
630.659	0.15
630.993	0.14
631.327	0.15
631.662	0.14
631.996	0.14
632.33	0.14
632.664	0.14
632.998	0.13
633.332	0.14
633.666	0.14
633.999	0.14
634.333	0.14
634.667	0.14
635.001	0.13
635.334	0.14
635.668	0.14
636.001	0.13
636.335	0.14
636.668	0.14
637.001	0.13
637.335	0.14
637.668	0.13
638.001	0.13
638.334	0.12
638.668	0.13
639.001	0.13
639.334	0.13
639.667	0.13
639.999	0.13
640.332	0.13
640.665	0.12
640.998	0.13
641.331	0.13
641.663	0.12
641.996	0.12
642.328	0.13
642.661	0.13
642.993	0.13
643.326	0.13
643.658	0.13
643.99	0.12
644.323	0.13
644.655	0.12
644.987	0.13
645.319	0.13
645.651	0.13
645.983	0.13
646.315	0.12
646.647	0.13
646.979	0.14
647.31	0.14
647.642	0.13
647.974	0.13
648.305	0.14
648.637	0.13
648.968	0.14
649.3	0.14
649.631	0.14
649.963	0.13
650.294	0.14
650.625	0.13
650.957	0.14
651.288	0.14
651.619	0.14
651.95	0.14
652.281	0.14
652.612	0.14
652.943	0.13
653.274	0.14
653.604	0.13
653.935	0.13
654.266	0.14
654.596	0.13
654.927	0.13
655.258	0.13
655.588	0.14
655.918	0.14
656.249	0.12
656.579	0.13
656.909	0.13
657.24	0.13
657.57	0.14
657.9	0.13
658.23	0.14
658.56	0.14
658.89	0.14
659.22	0.13
659.55	0.13
659.88	0.14
660.209	0.14
660.539	0.15
660.869	0.14
661.198	0.14
661.528	0.14
661.857	0.14
662.187	0.14
662.516	0.13
662.846	0.13
663.175	0.13
663.504	0.13
663.833	0.13
664.163	0.13
664.492	0.13
664.821	0.13
665.15	0.13
665.479	0.13
665.807	0.12
666.136	0.13
666.465	0.12
666.794	0.12
667.122	0.13
667.451	0.12
667.78	0.12
668.108	0.12
668.437	0.12
668.765	0.12
669.093	0.13
669.422	0.12
669.75	0.13
670.078	0.12
670.406	0.13
670.734	0.13
671.062	0.13
671.39	0.12
671.718	0.13
672.046	0.13
672.374	0.12
672.702	0.12
673.029	0.12
673.357	0.13
673.685	0.13
674.012	0.13
674.34	0.12
674.667	0.13
674.995	0.12
675.322	0.13
675.649	0.12
675.977	0.12
676.304	0.13
676.631	0.12
676.958	0.12
677.285	0.11
677.612	0.12
677.939	0.12
678.266	0.12
678.593	0.12
678.92	0.12
679.246	0.11
679.573	0.12
679.9	0.12
680.226	0.12
680.553	0.11
680.879	0.12
681.206	0.12
681.532	0.11
681.858	0.11
682.184	0.11
682.511	0.11
682.837	0.11
683.163	0.11
683.489	0.11
683.815	0.1
684.141	0.11
684.467	0.11
684.793	0.11
685.118	0.11
685.444	0.11
685.77	0.11
686.095	0.11
686.421	0.11
686.746	0.11
687.072	0.11
687.397	0.11
687.723	0.11
688.048	0.12
688.373	0.11
688.698	0.12
689.023	0.11
689.349	0.11
689.674	0.11
689.999	0.11
690.323	0.1
690.648	0.11
690.973	0.09
691.298	0.1
691.623	0.1
691.947	0.1
692.272	0.1
692.596	0.1
692.921	0.1
693.245	0.09
693.57	0.1
693.894	0.1
694.218	0.1
694.543	0.1
694.867	0.1
695.191	0.1
695.515	0.1
695.839	0.1
696.163	0.09
696.487	0.1
696.811	0.1
697.135	0.11
697.458	0.1
697.782	0.1
698.106	0.1
698.429	0.11
698.753	0.1
699.076	0.1
699.4	0.1
699.723	0.1
700.046	0.09
700.37	0.1
700.693	0.1
701.016	0.1
701.339	0.1
701.662	0.11
701.985	0.1
702.308	0.09
702.631	0.1
702.954	0.1
703.277	0.09
703.599	0.1
703.922	0.09
704.245	0.09
704.567	0.09
704.89	0.08
705.212	0.1
705.535	0.09
705.857	0.09
706.179	0.08
706.502	0.09
706.824	0.08
707.146	0.09
707.468	0.09
707.79	0.08
708.112	0.09
708.434	0.09
708.756	0.09
709.078	0.09
709.399	0.09
709.721	0.09
710.043	0.09
710.364	0.09
710.686	0.1
711.007	0.09
711.329	0.1
711.65	0.09
711.972	0.09
712.293	0.09
712.614	0.09
712.935	0.09
713.256	0.09
713.577	0.09
713.898	0.09
714.219	0.09
714.54	0.08
714.861	0.08
715.182	0.08
715.503	0.08
715.823	0.08
716.144	0.08
716.464	0.08
716.785	0.08
717.105	0.08
717.426	0.08
717.746	0.08
718.066	0.07
718.387	0.07
718.707	0.07
719.027	0.08
719.347	0.07
719.667	0.08
719.987	0.07
720.307	0.07
720.627	0.07
720.947	0.07
721.266	0.07
721.586	0.06
721.906	0.07
722.225	0.06
722.545	0.07
722.864	0.06
723.184	0.07
723.503	0.07
723.823	0.07
