Data from 12-12-AQDScycling_Absorbance__728__00728.txt Node

Date: Tue Dec 12 13:58:44 EST 2023
User: kyuminlee
Spectrometer: FLMS00943
Trigger mode: 0
Integration Time (sec): 1.000000E-1
Scans to average: 1
Electric dark correction enabled: true
Nonlinearity correction enabled: false
Boxcar width: 0
XAxis mode: Wavelengths
Number of Pixels in Spectrum: 2048
>>>>>Begin Spectral Data<<<<<
179.651	0.23
180.037	0.23
180.424	0.23
180.81	-0.06
181.197	0.65
181.583	-0
181.97	-0.59
182.356	0.05
182.743	-0.81
183.129	1.49
183.515	0.23
183.901	-2.55
184.288	-0
184.674	-0
185.06	-0.72
185.446	-0
185.832	-1.44
186.218	1.55
186.604	-0
186.99	0.07
187.376	-0
187.762	-0
188.148	0.52
188.534	-0.25
188.92	0.07
189.305	0.13
189.691	0.26
190.077	0.2
190.463	0.12
190.848	-0.04
191.234	0.16
191.619	0.09
192.005	0.12
192.391	0.14
192.776	0.09
193.161	0.19
193.547	0.07
193.932	-0.01
194.318	0.06
194.703	0.2
195.088	0.21
195.473	0.19
195.859	0.14
196.244	0.18
196.629	0.22
197.014	0.15
197.399	0.24
197.784	0.15
198.169	0.27
198.554	0.16
198.939	0.16
199.324	0.22
199.709	0.07
200.094	0.1
200.478	0.15
200.863	0.22
201.248	0.04
201.633	0.2
202.017	0.1
202.402	0.22
202.787	0.15
203.171	0.22
203.556	0.13
203.94	0.13
204.325	0.23
204.709	0.22
205.093	0.27
205.478	0.06
205.862	0.1
206.246	0.19
206.631	0.27
207.015	0.03
207.399	0.23
207.783	0.17
208.167	0.23
208.551	0.09
208.935	0.26
209.319	0.1
209.703	0.1
210.087	0.21
210.471	0.06
210.855	0.05
211.239	0.24
211.623	0.24
212.007	0.27
212.39	0.4
212.774	0.22
213.158	0.13
213.541	0.22
213.925	0.19
214.309	0.36
214.692	0.34
215.076	0.32
215.459	0.16
215.842	0.39
216.226	0.2
216.609	0.26
216.993	0.24
217.376	0.41
217.759	0.14
218.142	0.34
218.525	0.63
218.909	0.64
219.292	0.32
219.675	0.5
220.058	0.5
220.441	0.6
220.824	0.53
221.207	0.49
221.59	0.42
221.973	0.54
222.355	0.6
222.738	0.57
223.121	0.49
223.504	0.61
223.886	0.76
224.269	0.79
224.652	0.71
225.034	0.81
225.417	0.77
225.799	0.81
226.182	0.83
226.564	0.85
226.947	0.78
227.329	0.79
227.711	0.91
228.094	0.92
228.476	0.92
228.858	0.82
229.24	0.81
229.623	0.92
230.005	0.9
230.387	0.81
230.769	0.84
231.151	1.09
231.533	1.05
231.915	0.95
232.297	1.26
232.679	1
233.061	1.25
233.442	0.97
233.824	1
234.206	1.07
234.588	1.12
234.969	1.14
235.351	0.94
235.733	0.97
236.114	1.14
236.496	1.17
236.877	1.06
237.259	1.01
237.64	1.05
238.022	1
238.403	1.05
238.784	1.04
239.165	0.9
239.547	1.1
239.928	1.12
240.309	1.04
240.69	1.08
241.071	1.23
241.452	1.11
241.834	1.07
242.215	1.01
242.595	1.05
242.976	1.14
243.357	1.22
243.738	1.06
244.119	1.39
244.5	1.09
244.881	1.18
245.261	1.21
245.642	1.21
246.023	1.23
246.403	1.44
246.784	1.28
247.164	1.27
247.545	1.39
247.925	1.33
248.306	1.14
248.686	1.33
249.067	1.39
249.447	1.34
249.827	1.43
250.207	1.47
250.588	1.22
250.968	1.43
251.348	1.33
251.728	1.5
252.108	1.43
252.488	1.31
252.868	1.3
253.248	1.36
253.628	1.41
254.008	1.58
254.388	1.19
254.768	1.35
255.147	1.43
255.527	1.44
255.907	1.38
256.287	1.33
256.666	1.53
257.046	1.48
257.425	1.46
257.805	1.33
258.184	1.27
258.564	1.36
258.943	1.55
259.323	1.49
259.702	1.47
260.081	1.35
260.461	1.45
260.84	1.4
261.219	1.76
261.598	1.43
261.977	1.57
262.356	1.48
262.736	1.42
263.115	1.46
263.494	1.38
263.873	1.48
264.251	1.44
264.63	1.65
265.009	1.38
265.388	1.56
265.767	1.3
266.145	1.48
266.524	1.41
266.903	1.51
267.281	1.32
267.66	1.56
268.039	1.48
268.417	1.41
268.796	1.42
269.174	1.4
269.552	1.38
269.931	1.38
270.309	1.34
270.687	1.52
271.066	1.55
271.444	1.37
271.822	1.55
272.2	1.38
272.578	1.52
272.956	1.45
273.334	1.31
273.712	1.48
274.09	1.46
274.468	1.38
274.846	1.3
275.224	1.34
275.602	1.47
275.98	1.51
276.357	1.32
276.735	1.52
277.113	1.47
277.49	1.24
277.868	1.34
278.246	1.31
278.623	1.33
279.001	1.21
279.378	1.37
279.756	1.5
280.133	1.5
280.51	1.48
280.888	1.43
281.265	1.51
281.642	1.47
282.019	1.57
282.396	1.45
282.773	1.41
283.151	1.52
283.528	1.53
283.905	1.42
284.282	1.4
284.659	1.56
285.035	1.3
285.412	1.23
285.789	1.39
286.166	1.45
286.543	1.42
286.919	1.41
287.296	1.4
287.673	1.53
288.049	1.51
288.426	1.58
288.802	1.54
289.179	1.62
289.555	1.63
289.932	1.46
290.308	1.3
290.684	1.45
291.061	1.31
291.437	1.55
291.813	1.4
292.189	1.3
292.565	1.34
292.942	1.44
293.318	1.23
293.694	1.5
294.07	1.35
294.446	1.43
294.822	1.63
295.197	1.52
295.573	1.48
295.949	1.54
296.325	1.48
296.701	1.7
297.076	1.55
297.452	1.58
297.828	1.5
298.203	1.55
298.579	1.52
298.954	1.46
299.33	1.37
299.705	1.47
300.081	1.52
300.456	1.61
300.831	1.38
301.206	1.48
301.582	1.46
301.957	1.46
302.332	1.65
302.707	1.5
303.082	1.46
303.457	1.65
303.832	1.43
304.207	1.37
304.582	1.38
304.957	1.47
305.332	1.55
305.707	1.43
306.082	1.57
306.456	1.58
306.831	1.42
307.206	1.5
307.58	1.46
307.955	1.5
308.33	1.4
308.704	1.64
309.079	1.59
309.453	1.72
309.828	1.56
310.202	1.52
310.576	1.61
310.951	1.52
311.325	1.72
311.699	1.51
312.073	1.39
312.447	1.39
312.821	1.58
313.196	1.63
313.57	1.49
313.944	1.49
314.317	1.43
314.691	1.49
315.065	1.48
315.439	1.57
315.813	1.51
316.187	1.51
316.56	1.73
316.934	1.58
317.308	1.43
317.681	1.63
318.055	1.5
318.428	1.58
318.802	1.59
319.175	1.64
319.549	1.45
319.922	1.3
320.295	1.45
320.669	1.73
321.042	1.49
321.415	1.74
321.788	1.54
322.162	1.53
322.535	1.6
322.908	1.57
323.281	1.59
323.654	1.73
324.027	1.52
324.4	1.73
324.773	1.6
325.145	1.73
325.518	1.52
325.891	1.48
326.264	1.74
326.636	1.47
327.009	1.39
327.382	1.43
327.754	1.62
328.127	1.61
328.499	1.53
328.872	1.41
329.244	1.65
329.616	1.69
329.989	1.62
330.361	1.62
330.733	1.51
331.106	1.38
331.478	1.64
331.85	1.45
332.222	1.4
332.594	1.45
332.966	1.54
333.338	1.64
333.71	1.63
334.082	1.81
334.454	1.51
334.826	1.6
335.197	1.55
335.569	1.53
335.941	1.48
336.312	1.45
336.684	1.52
337.056	1.54
337.427	1.64
337.799	1.53
338.17	1.42
338.542	1.5
338.913	1.58
339.284	1.67
339.656	1.59
340.027	1.67
340.398	1.63
340.769	1.51
341.141	1.61
341.512	1.58
341.883	1.57
342.254	1.72
342.625	1.57
342.996	1.61
343.367	1.63
343.738	1.54
344.108	1.45
344.479	1.64
344.85	1.5
345.221	1.53
345.591	1.39
345.962	1.6
346.333	1.56
346.703	1.31
347.074	1.45
347.444	1.35
347.815	1.46
348.185	1.58
348.556	1.37
348.926	1.41
349.296	1.51
349.666	1.43
350.037	1.29
350.407	1.3
350.777	1.36
351.147	1.37
351.517	1.34
351.887	1.35
352.257	1.36
352.627	1.35
352.997	1.27
353.367	1.49
353.737	1.41
354.106	1.35
354.476	1.35
354.846	1.33
355.216	1.37
355.585	1.37
355.955	1.34
356.324	1.31
356.694	1.26
357.063	1.34
357.433	1.28
357.802	1.29
358.171	1.25
358.541	1.21
358.91	1.26
359.279	1.28
359.648	1.19
360.017	1.2
360.387	1.2
360.756	1.17
361.125	1.22
361.494	1.23
361.863	1.12
362.231	1.12
362.6	1.11
362.969	1.12
363.338	1.04
363.707	1.12
364.075	1.09
364.444	1.02
364.813	0.99
365.181	1
365.55	1
365.918	1.06
366.287	1.01
366.655	1.07
367.024	1
367.392	1.01
367.76	0.93
368.128	0.95
368.497	0.95
368.865	0.96
369.233	0.93
369.601	0.92
369.969	0.93
370.337	0.89
370.705	0.91
371.073	0.89
371.441	0.84
371.809	0.86
372.177	0.87
372.544	0.87
372.912	0.94
373.28	0.88
373.647	0.91
374.015	0.89
374.383	0.9
374.75	0.89
375.118	0.86
375.485	0.87
375.853	0.87
376.22	0.83
376.587	0.83
376.955	0.85
377.322	0.84
377.689	0.84
378.056	0.84
378.423	0.82
378.79	0.84
379.157	0.87
379.524	0.83
379.891	0.84
380.258	0.87
380.625	0.84
380.992	0.84
381.359	0.84
381.726	0.87
382.092	0.84
382.459	0.89
382.826	0.84
383.192	0.86
383.559	0.88
383.925	0.91
384.292	0.87
384.658	0.89
385.025	0.86
385.391	0.91
385.757	0.89
386.123	0.89
386.49	0.85
386.856	0.89
387.222	0.91
387.588	0.87
387.954	0.97
388.32	0.9
388.686	0.89
389.052	0.92
389.418	0.9
389.784	0.92
390.15	0.91
390.515	0.88
390.881	0.92
391.247	0.9
391.613	0.92
391.978	0.89
392.344	0.96
392.709	0.93
393.075	0.94
393.44	0.93
393.806	0.9
394.171	0.88
394.536	0.92
394.902	0.88
395.267	0.89
395.632	0.87
395.997	0.89
396.362	0.87
396.727	0.91
397.092	0.88
397.457	0.84
397.822	0.87
398.187	0.91
398.552	0.85
398.917	0.87
399.282	0.84
399.646	0.86
400.011	0.89
400.376	0.82
400.74	0.83
401.105	0.85
401.47	0.85
401.834	0.81
402.199	0.81
402.563	0.78
402.927	0.77
403.292	0.78
403.656	0.77
404.02	0.81
404.384	0.81
404.749	0.78
405.113	0.76
405.477	0.78
405.841	0.75
406.205	0.77
406.569	0.73
406.933	0.75
407.296	0.73
407.66	0.72
408.024	0.7
408.388	0.74
408.752	0.73
409.115	0.73
409.479	0.72
409.842	0.7
410.206	0.67
410.569	0.7
410.933	0.69
411.296	0.66
411.66	0.67
412.023	0.67
412.386	0.68
412.749	0.65
413.113	0.66
413.476	0.65
413.839	0.64
414.202	0.63
414.565	0.61
414.928	0.65
415.291	0.6
415.654	0.61
416.017	0.63
416.38	0.62
416.742	0.59
417.105	0.62
417.468	0.59
417.83	0.61
418.193	0.62
418.556	0.61
418.918	0.59
419.281	0.6
419.643	0.62
420.005	0.61
420.368	0.61
420.73	0.58
421.092	0.62
421.455	0.58
421.817	0.55
422.179	0.58
422.541	0.58
422.903	0.6
423.265	0.57
423.627	0.57
423.989	0.57
424.351	0.57
424.713	0.59
425.075	0.54
425.436	0.56
425.798	0.56
426.16	0.55
426.521	0.56
426.883	0.58
427.245	0.55
427.606	0.54
427.967	0.53
428.329	0.55
428.69	0.56
429.052	0.56
429.413	0.57
429.774	0.55
430.135	0.54
430.497	0.53
430.858	0.52
431.219	0.52
431.58	0.54
431.941	0.53
432.302	0.53
432.663	0.53
433.024	0.53
433.384	0.54
433.745	0.51
434.106	0.51
434.467	0.52
434.827	0.52
435.188	0.5
435.548	0.54
435.909	0.5
436.269	0.53
436.63	0.5
436.99	0.49
437.351	0.5
437.711	0.52
438.071	0.49
438.431	0.5
438.792	0.49
439.152	0.48
439.512	0.48
439.872	0.49
440.232	0.5
440.592	0.5
440.952	0.49
441.312	0.46
441.671	0.48
442.031	0.47
442.391	0.47
442.751	0.47
443.11	0.47
443.47	0.46
443.83	0.46
444.189	0.47
444.549	0.47
444.908	0.46
445.267	0.46
445.627	0.47
445.986	0.45
446.345	0.43
446.705	0.44
447.064	0.42
447.423	0.44
447.782	0.44
448.141	0.43
448.5	0.43
448.859	0.43
449.218	0.42
449.577	0.43
449.936	0.43
450.295	0.43
450.653	0.43
451.012	0.42
451.371	0.43
451.729	0.42
452.088	0.43
452.447	0.42
452.805	0.41
453.163	0.42
453.522	0.41
453.88	0.41
454.239	0.39
454.597	0.39
454.955	0.39
455.313	0.39
455.671	0.39
456.029	0.38
456.388	0.37
456.746	0.38
457.104	0.36
457.461	0.36
457.819	0.36
458.177	0.35
458.535	0.35
458.893	0.35
459.25	0.35
459.608	0.35
459.966	0.33
460.323	0.34
460.681	0.32
461.038	0.33
461.396	0.32
461.753	0.32
462.111	0.33
462.468	0.32
462.825	0.31
463.182	0.31
463.54	0.3
463.897	0.3
464.254	0.31
464.611	0.3
464.968	0.3
465.325	0.3
465.682	0.29
466.039	0.29
466.395	0.29
466.752	0.29
467.109	0.29
467.466	0.29
467.822	0.29
468.179	0.27
468.535	0.27
468.892	0.27
469.248	0.27
469.605	0.26
469.961	0.25
470.318	0.27
470.674	0.25
471.03	0.25
471.386	0.26
471.743	0.24
472.099	0.24
472.455	0.25
472.811	0.24
473.167	0.25
473.523	0.23
473.879	0.23
474.235	0.23
474.59	0.24
474.946	0.22
475.302	0.23
475.657	0.22
476.013	0.22
476.369	0.21
476.724	0.22
477.08	0.22
477.435	0.21
477.791	0.21
478.146	0.21
478.501	0.2
478.857	0.21
479.212	0.2
479.567	0.2
479.922	0.19
480.277	0.19
480.632	0.18
480.987	0.19
481.342	0.18
481.697	0.18
482.052	0.18
482.407	0.18
482.762	0.18
483.116	0.17
483.471	0.17
483.826	0.16
484.18	0.17
484.535	0.17
484.89	0.16
485.244	0.16
485.598	0.16
485.953	0.16
486.307	0.16
486.661	0.16
487.016	0.15
487.37	0.16
487.724	0.16
488.078	0.15
488.432	0.15
488.786	0.15
489.14	0.15
489.494	0.14
489.848	0.14
490.202	0.15
490.556	0.14
490.91	0.14
491.263	0.14
491.617	0.14
491.971	0.14
492.324	0.14
492.678	0.14
493.031	0.15
493.385	0.14
493.738	0.14
494.091	0.14
494.445	0.14
494.798	0.14
495.151	0.13
495.504	0.13
495.857	0.13
496.21	0.14
496.564	0.13
496.916	0.13
497.269	0.13
497.622	0.12
497.975	0.12
498.328	0.13
498.681	0.13
499.033	0.12
499.386	0.12
499.739	0.12
500.091	0.12
500.444	0.12
500.796	0.12
501.149	0.11
501.501	0.12
501.854	0.12
502.206	0.12
502.558	0.12
502.91	0.12
503.263	0.12
503.615	0.12
503.967	0.11
504.319	0.12
504.671	0.12
505.023	0.11
505.375	0.12
505.726	0.12
506.078	0.11
506.43	0.11
506.782	0.11
507.133	0.12
507.485	0.11
507.837	0.12
508.188	0.12
508.54	0.12
508.891	0.12
509.243	0.11
509.594	0.11
509.945	0.12
510.296	0.11
510.648	0.11
510.999	0.11
511.35	0.11
511.701	0.11
512.052	0.12
512.403	0.12
512.754	0.11
513.105	0.11
513.456	0.11
513.807	0.11
514.157	0.11
514.508	0.11
514.859	0.1
515.209	0.1
515.56	0.11
515.91	0.1
516.261	0.12
516.611	0.11
516.962	0.11
517.312	0.11
517.662	0.11
518.013	0.12
518.363	0.11
518.713	0.11
519.063	0.12
519.413	0.11
519.763	0.12
520.113	0.11
520.463	0.12
520.813	0.12
521.163	0.12
521.512	0.11
521.862	0.11
522.212	0.11
522.562	0.12
522.911	0.11
523.261	0.12
523.61	0.12
523.96	0.11
524.309	0.12
524.658	0.12
525.008	0.11
525.357	0.11
525.706	0.12
526.056	0.11
526.405	0.11
526.754	0.11
527.103	0.11
527.452	0.11
527.801	0.12
528.15	0.12
528.499	0.11
528.847	0.12
529.196	0.12
529.545	0.12
529.893	0.12
530.242	0.12
530.591	0.12
530.939	0.13
531.288	0.12
531.636	0.13
531.985	0.12
532.333	0.12
532.681	0.12
533.029	0.12
533.378	0.12
533.726	0.12
534.074	0.12
534.422	0.11
534.77	0.11
535.118	0.12
535.466	0.12
535.814	0.12
536.162	0.12
536.509	0.12
536.857	0.12
537.205	0.13
537.552	0.12
537.9	0.12
538.248	0.12
538.595	0.13
538.943	0.13
539.29	0.13
539.637	0.12
539.985	0.12
540.332	0.12
540.679	0.12
541.026	0.11
541.373	0.13
541.721	0.12
542.068	0.12
542.415	0.12
542.762	0.12
543.108	0.11
543.455	0.11
543.802	0.12
544.149	0.11
544.496	0.12
544.842	0.11
545.189	0.1
545.535	0.11
545.882	0.12
546.228	0.1
546.575	0.11
546.921	0.11
547.267	0.11
547.614	0.11
547.96	0.11
548.306	0.11
548.652	0.1
548.998	0.11
549.344	0.11
549.69	0.12
550.036	0.11
550.382	0.11
550.728	0.11
551.074	0.11
551.42	0.12
551.765	0.11
552.111	0.12
552.457	0.13
552.802	0.11
553.148	0.12
553.493	0.12
553.839	0.12
554.184	0.12
554.529	0.11
554.875	0.12
555.22	0.12
555.565	0.12
555.91	0.12
556.255	0.12
556.6	0.12
556.945	0.11
557.29	0.12
557.635	0.12
557.98	0.12
558.325	0.12
558.67	0.12
559.014	0.12
559.359	0.12
559.704	0.12
560.048	0.11
560.393	0.11
560.737	0.11
561.082	0.12
561.426	0.11
561.77	0.12
562.115	0.11
562.459	0.11
562.803	0.12
563.147	0.11
563.491	0.12
563.835	0.12
564.179	0.11
564.523	0.12
564.867	0.12
565.211	0.11
565.555	0.12
565.899	0.12
566.242	0.12
566.586	0.11
566.93	0.12
567.273	0.12
567.617	0.12
567.96	0.12
568.304	0.13
568.647	0.12
568.99	0.12
569.334	0.12
569.677	0.12
570.02	0.13
570.363	0.12
570.706	0.12
571.049	0.13
571.392	0.13
571.735	0.11
572.078	0.12
572.421	0.13
572.764	0.13
573.106	0.12
573.449	0.12
573.792	0.12
574.134	0.12
574.477	0.13
574.819	0.12
575.162	0.12
575.504	0.12
575.847	0.11
576.189	0.12
576.531	0.11
576.873	0.12
577.215	0.12
577.558	0.12
577.9	0.11
578.242	0.11
578.584	0.11
578.926	0.12
579.267	0.11
579.609	0.12
579.951	0.11
580.293	0.12
580.634	0.11
580.976	0.12
581.318	0.11
581.659	0.12
582.001	0.12
582.342	0.12
582.683	0.12
583.025	0.12
583.366	0.11
583.707	0.11
584.049	0.12
584.39	0.11
584.731	0.11
585.072	0.11
585.413	0.12
585.754	0.12
586.095	0.12
586.435	0.12
586.776	0.12
587.117	0.11
587.458	0.12
587.798	0.12
588.139	0.12
588.48	0.11
588.82	0.12
589.161	0.11
589.501	0.11
589.841	0.12
590.182	0.11
590.522	0.11
590.862	0.12
591.202	0.11
591.542	0.12
591.882	0.12
592.222	0.11
592.562	0.12
592.902	0.11
593.242	0.11
593.582	0.11
593.922	0.11
594.261	0.11
594.601	0.11
594.941	0.11
595.28	0.12
595.62	0.12
595.959	0.11
596.299	0.11
596.638	0.11
596.977	0.11
597.317	0.13
597.656	0.11
597.995	0.12
598.334	0.12
598.673	0.12
599.012	0.12
599.351	0.12
599.69	0.12
600.029	0.12
600.368	0.12
600.707	0.12
601.046	0.12
601.384	0.12
601.723	0.12
602.061	0.12
602.4	0.12
602.738	0.12
603.077	0.12
603.415	0.11
603.754	0.12
604.092	0.12
604.43	0.12
604.768	0.12
605.107	0.13
605.445	0.11
605.783	0.11
606.121	0.11
606.459	0.12
606.796	0.12
607.134	0.11
607.472	0.11
607.81	0.12
608.148	0.11
608.485	0.12
608.823	0.11
609.16	0.12
609.498	0.12
609.835	0.11
610.173	0.11
610.51	0.12
610.847	0.11
611.185	0.11
611.522	0.12
611.859	0.12
612.196	0.12
612.533	0.12
612.87	0.12
613.207	0.13
613.544	0.12
613.881	0.13
614.217	0.12
614.554	0.12
614.891	0.12
615.228	0.13
615.564	0.12
615.901	0.13
616.237	0.12
616.574	0.12
616.91	0.13
617.246	0.12
617.583	0.13
617.919	0.13
618.255	0.13
618.591	0.12
618.927	0.12
619.263	0.13
619.599	0.13
619.935	0.12
620.271	0.12
620.607	0.12
620.943	0.12
621.279	0.13
621.614	0.12
621.95	0.13
622.286	0.12
622.621	0.12
622.957	0.12
623.292	0.12
623.627	0.12
623.963	0.12
624.298	0.12
624.633	0.12
624.968	0.12
625.304	0.12
625.639	0.12
625.974	0.11
626.309	0.11
626.644	0.11
626.979	0.12
627.313	0.12
627.648	0.12
627.983	0.12
628.318	0.12
628.652	0.11
628.987	0.11
629.321	0.12
629.656	0.11
629.99	0.11
630.325	0.11
630.659	0.11
630.993	0.1
631.327	0.11
631.662	0.1
631.996	0.1
632.33	0.11
632.664	0.11
632.998	0.1
633.332	0.1
633.666	0.1
633.999	0.11
634.333	0.1
634.667	0.11
635.001	0.1
635.334	0.1
635.668	0.1
636.001	0.1
636.335	0.1
636.668	0.1
637.001	0.1
637.335	0.1
637.668	0.11
638.001	0.1
638.334	0.1
638.668	0.1
639.001	0.1
639.334	0.09
639.667	0.1
639.999	0.1
640.332	0.1
640.665	0.1
640.998	0.1
641.331	0.11
641.663	0.11
641.996	0.1
642.328	0.11
642.661	0.11
642.993	0.11
643.326	0.11
643.658	0.1
643.99	0.1
644.323	0.1
644.655	0.1
644.987	0.11
645.319	0.1
645.651	0.11
645.983	0.11
646.315	0.1
646.647	0.11
646.979	0.11
647.31	0.11
647.642	0.1
647.974	0.11
648.305	0.11
648.637	0.11
648.968	0.1
649.3	0.1
649.631	0.11
649.963	0.1
650.294	0.11
650.625	0.1
650.957	0.11
651.288	0.11
651.619	0.11
651.95	0.11
652.281	0.11
652.612	0.11
652.943	0.11
653.274	0.11
653.604	0.1
653.935	0.1
654.266	0.11
654.596	0.1
654.927	0.11
655.258	0.11
655.588	0.11
655.918	0.11
656.249	0.09
656.579	0.09
656.909	0.1
657.24	0.1
657.57	0.1
657.9	0.1
658.23	0.1
658.56	0.11
658.89	0.11
659.22	0.1
659.55	0.1
659.88	0.11
660.209	0.1
660.539	0.11
660.869	0.1
661.198	0.1
661.528	0.1
661.857	0.1
662.187	0.11
662.516	0.1
662.846	0.1
663.175	0.1
663.504	0.1
663.833	0.09
664.163	0.1
664.492	0.09
664.821	0.1
665.15	0.1
665.479	0.1
665.807	0.1
666.136	0.1
666.465	0.1
666.794	0.1
667.122	0.1
667.451	0.11
667.78	0.1
668.108	0.11
668.437	0.1
668.765	0.11
669.093	0.11
669.422	0.11
669.75	0.11
670.078	0.1
670.406	0.1
670.734	0.11
671.062	0.1
671.39	0.1
671.718	0.1
672.046	0.1
672.374	0.1
672.702	0.1
673.029	0.09
673.357	0.1
673.685	0.11
674.012	0.1
674.34	0.1
674.667	0.1
674.995	0.1
675.322	0.1
675.649	0.09
675.977	0.1
676.304	0.09
676.631	0.1
676.958	0.1
677.285	0.09
677.612	0.09
677.939	0.09
678.266	0.1
678.593	0.09
678.92	0.1
679.246	0.09
679.573	0.09
679.9	0.08
680.226	0.1
680.553	0.09
680.879	0.09
681.206	0.09
681.532	0.09
681.858	0.09
682.184	0.1
682.511	0.1
682.837	0.1
683.163	0.1
683.489	0.09
683.815	0.09
684.141	0.1
684.467	0.1
684.793	0.09
685.118	0.09
685.444	0.1
685.77	0.09
686.095	0.09
686.421	0.09
686.746	0.1
687.072	0.09
687.397	0.09
687.723	0.1
688.048	0.1
688.373	0.09
688.698	0.09
689.023	0.09
689.349	0.09
689.674	0.08
689.999	0.09
690.323	0.08
690.648	0.08
690.973	0.08
691.298	0.08
691.623	0.08
691.947	0.08
692.272	0.09
692.596	0.09
692.921	0.09
693.245	0.08
693.57	0.09
693.894	0.1
694.218	0.09
694.543	0.09
694.867	0.09
695.191	0.08
695.515	0.09
695.839	0.09
696.163	0.09
696.487	0.1
696.811	0.1
697.135	0.1
697.458	0.09
697.782	0.09
698.106	0.09
698.429	0.09
698.753	0.08
699.076	0.09
699.4	0.09
699.723	0.09
700.046	0.08
700.37	0.1
700.693	0.09
701.016	0.08
701.339	0.09
701.662	0.09
701.985	0.09
702.308	0.08
702.631	0.09
702.954	0.09
703.277	0.09
703.599	0.09
703.922	0.08
704.245	0.09
704.567	0.08
704.89	0.08
705.212	0.08
705.535	0.07
705.857	0.08
706.179	0.07
706.502	0.08
706.824	0.07
707.146	0.08
707.468	0.08
707.79	0.07
708.112	0.08
708.434	0.08
708.756	0.08
709.078	0.09
709.399	0.09
709.721	0.08
710.043	0.08
710.364	0.09
710.686	0.09
711.007	0.08
711.329	0.08
711.65	0.08
711.972	0.08
712.293	0.09
712.614	0.09
712.935	0.09
713.256	0.08
713.577	0.08
713.898	0.08
714.219	0.08
714.54	0.08
714.861	0.07
715.182	0.08
715.503	0.08
715.823	0.08
716.144	0.07
716.464	0.07
716.785	0.07
717.105	0.08
717.426	0.08
717.746	0.07
718.066	0.07
718.387	0.07
718.707	0.07
719.027	0.07
719.347	0.06
719.667	0.07
719.987	0.07
720.307	0.07
720.627	0.07
720.947	0.07
721.266	0.07
721.586	0.06
721.906	0.07
722.225	0.07
722.545	0.07
722.864	0.06
723.184	0.07
723.503	0.07
723.823	0.08
724.142	0.07
724.461	0.07
724.78	0.07
725.099	0.07
725.418	0.07
