Data from 12-12-AQDScycling_Absorbance__345__00345.txt Node

Date: Tue Dec 12 12:22:59 EST 2023
User: kyuminlee
Spectrometer: FLMS00943
Trigger mode: 0
Integration Time (sec): 1.000000E-1
Scans to average: 1
Electric dark correction enabled: true
Nonlinearity correction enabled: false
Boxcar width: 0
XAxis mode: Wavelengths
Number of Pixels in Spectrum: 2048
>>>>>Begin Spectral Data<<<<<
179.651	-0.31
180.037	-0.31
180.424	-0.31
180.81	-0
181.197	0.28
181.583	-0.21
181.97	-0.39
182.356	-0
182.743	-0
183.129	0.15
183.515	2.28
183.901	-0
184.288	0.38
184.674	0.06
185.06	-0
185.446	0.77
185.832	-0.82
186.218	0.49
186.604	-0.25
186.99	-0
187.376	-0
187.762	-0.01
188.148	0.33
188.534	1
188.92	0.13
189.305	0.08
189.691	0.17
190.077	0.1
190.463	0.11
190.848	0.06
191.234	-0.03
191.619	0.04
192.005	0.21
192.391	0.26
192.776	0.05
193.161	0.06
193.547	0.18
193.932	-0.06
194.318	0.1
194.703	0.13
195.088	0.17
195.473	0.17
195.859	0.16
196.244	0.13
196.629	0.12
197.014	0.15
197.399	0.07
197.784	0.24
198.169	0.07
198.554	0.23
198.939	0.18
199.324	0.07
199.709	0.08
200.094	0.09
200.478	0.11
200.863	0.11
201.248	0.12
201.633	0.15
202.017	0.18
202.402	0.24
202.787	0.01
203.171	0.1
203.556	0.22
203.94	0.15
204.325	0.33
204.709	0.1
205.093	0.09
205.478	0.15
205.862	0.2
206.246	0.22
206.631	0.13
207.015	0.19
207.399	0.13
207.783	0.15
208.167	0.11
208.551	0.28
208.935	0.1
209.319	0.15
209.703	0.13
210.087	0.34
210.471	0.02
210.855	0.07
211.239	0.31
211.623	0.18
212.007	0.27
212.39	0.3
212.774	0.11
213.158	0.11
213.541	0.25
213.925	0.25
214.309	0.32
214.692	0.25
215.076	0.22
215.459	0.15
215.842	0.18
216.226	0.34
216.609	0.31
216.993	0.24
217.376	0.32
217.759	0.24
218.142	0.32
218.525	0.5
218.909	0.49
219.292	0.37
219.675	0.45
220.058	0.54
220.441	0.54
220.824	0.52
221.207	0.59
221.59	0.43
221.973	0.53
222.355	0.66
222.738	0.74
223.121	0.51
223.504	0.61
223.886	0.68
224.269	0.73
224.652	0.68
225.034	0.73
225.417	0.74
225.799	0.84
226.182	1.07
226.564	0.79
226.947	0.81
227.329	0.8
227.711	0.93
228.094	0.98
228.476	0.89
228.858	0.85
229.24	0.92
229.623	0.97
230.005	0.86
230.387	0.9
230.769	0.86
231.151	0.97
231.533	0.89
231.915	0.91
232.297	1.02
232.679	0.94
233.061	1.03
233.442	0.97
233.824	1.02
234.206	0.97
234.588	0.98
234.969	1.05
235.351	0.97
235.733	1.19
236.114	1.09
236.496	1.11
236.877	1.15
237.259	1.07
237.64	1.01
238.022	0.96
238.403	1.06
238.784	1
239.165	1.04
239.547	1.2
239.928	1.14
240.309	0.96
240.69	1.06
241.071	1.07
241.452	1.21
241.834	1.09
242.215	1.1
242.595	1.13
242.976	1.21
243.357	1.07
243.738	1.03
244.119	1.3
244.5	1.15
244.881	1.16
245.261	1.21
245.642	1.17
246.023	1.18
246.403	1.23
246.784	1.25
247.164	1.25
247.545	1.38
247.925	1.2
248.306	1.21
248.686	1.42
249.067	1.31
249.447	1.37
249.827	1.51
250.207	1.53
250.588	1.28
250.968	1.38
251.348	1.31
251.728	1.51
252.108	1.22
252.488	1.35
252.868	1.38
253.248	1.46
253.628	1.37
254.008	1.4
254.388	1.29
254.768	1.38
255.147	1.33
255.527	1.49
255.907	1.26
256.287	1.34
256.666	1.37
257.046	1.5
257.425	1.43
257.805	1.29
258.184	1.34
258.564	1.41
258.943	1.31
259.323	1.45
259.702	1.42
260.081	1.46
260.461	1.51
260.84	1.39
261.219	1.6
261.598	1.53
261.977	1.42
262.356	1.49
262.736	1.55
263.115	1.48
263.494	1.49
263.873	1.43
264.251	1.36
264.63	1.51
265.009	1.52
265.388	1.39
265.767	1.44
266.145	1.47
266.524	1.51
266.903	1.35
267.281	1.41
267.66	1.57
268.039	1.38
268.417	1.42
268.796	1.36
269.174	1.52
269.552	1.3
269.931	1.68
270.309	1.34
270.687	1.48
271.066	1.55
271.444	1.35
271.822	1.56
272.2	1.36
272.578	1.37
272.956	1.38
273.334	1.4
273.712	1.39
274.09	1.41
274.468	1.33
274.846	1.27
275.224	1.31
275.602	1.59
275.98	1.83
276.357	1.38
276.735	1.58
277.113	1.41
277.49	1.36
277.868	1.3
278.246	1.37
278.623	1.32
279.001	1.49
279.378	1.46
279.756	1.51
280.133	1.43
280.51	1.38
280.888	1.54
281.265	1.37
281.642	1.49
282.019	1.5
282.396	1.53
282.773	1.39
283.151	1.72
283.528	1.65
283.905	1.35
284.282	1.39
284.659	1.6
285.035	1.38
285.412	1.33
285.789	1.71
286.166	1.51
286.543	1.49
286.919	1.52
287.296	1.34
287.673	1.57
288.049	1.45
288.426	1.63
288.802	1.46
289.179	1.44
289.555	1.86
289.932	1.52
290.308	1.34
290.684	1.34
291.061	1.31
291.437	1.5
291.813	1.45
292.189	1.35
292.565	1.25
292.942	1.38
293.318	1.32
293.694	1.52
294.07	1.34
294.446	1.32
294.822	1.46
295.197	1.37
295.573	1.37
295.949	1.29
296.325	1.29
296.701	1.55
297.076	1.43
297.452	1.42
297.828	1.38
298.203	1.48
298.579	1.44
298.954	1.25
299.33	1.32
299.705	1.34
300.081	1.3
300.456	1.3
300.831	1.22
301.206	1.27
301.582	1.27
301.957	1.19
302.332	1.19
302.707	1.18
303.082	1.13
303.457	1.18
303.832	1.15
304.207	1.01
304.582	1.03
304.957	1.07
305.332	1.08
305.707	1.06
306.082	1.05
306.456	0.99
306.831	0.93
307.206	0.97
307.58	0.96
307.955	0.9
308.33	0.91
308.704	0.85
309.079	0.85
309.453	0.88
309.828	0.81
310.202	0.81
310.576	0.82
310.951	0.82
311.325	0.81
311.699	0.76
312.073	0.75
312.447	0.76
312.821	0.75
313.196	0.74
313.57	0.71
313.944	0.69
314.317	0.7
314.691	0.7
315.065	0.66
315.439	0.68
315.813	0.68
316.187	0.65
316.56	0.65
316.934	0.64
317.308	0.61
317.681	0.63
318.055	0.61
318.428	0.58
318.802	0.62
319.175	0.6
319.549	0.59
319.922	0.58
320.295	0.59
320.669	0.61
321.042	0.62
321.415	0.61
321.788	0.58
322.162	0.57
322.535	0.58
322.908	0.59
323.281	0.55
323.654	0.56
324.027	0.56
324.4	0.57
324.773	0.55
325.145	0.58
325.518	0.54
325.891	0.57
326.264	0.57
326.636	0.56
327.009	0.54
327.382	0.58
327.754	0.57
328.127	0.58
328.499	0.58
328.872	0.58
329.244	0.57
329.616	0.58
329.989	0.62
330.361	0.61
330.733	0.59
331.106	0.6
331.478	0.63
331.85	0.62
332.222	0.6
332.594	0.62
332.966	0.63
333.338	0.65
333.71	0.64
334.082	0.7
334.454	0.66
334.826	0.71
335.197	0.69
335.569	0.7
335.941	0.68
336.312	0.74
336.684	0.75
337.056	0.75
337.427	0.77
337.799	0.76
338.17	0.79
338.542	0.78
338.913	0.82
339.284	0.81
339.656	0.79
340.027	0.8
340.398	0.82
340.769	0.82
341.141	0.89
341.512	0.85
341.883	0.87
342.254	0.86
342.625	0.92
342.996	0.86
343.367	0.9
343.738	0.92
344.108	0.93
344.479	0.99
344.85	0.94
345.221	1.01
345.591	1.01
345.962	0.96
346.333	1.03
346.703	1.02
347.074	1.06
347.444	1.04
347.815	1.11
348.185	1.18
348.556	1.08
348.926	1.11
349.296	1.03
349.666	1.16
350.037	1.04
350.407	1.09
350.777	1.14
351.147	1.24
351.517	1.19
351.887	1.18
352.257	1.16
352.627	1.19
352.997	1.18
353.367	1.29
353.737	1.37
354.106	1.32
354.476	1.23
354.846	1.41
355.216	1.35
355.585	1.46
355.955	1.38
356.324	1.35
356.694	1.39
357.063	1.45
357.433	1.33
357.802	1.45
358.171	1.6
358.541	1.46
358.91	1.45
359.279	1.59
359.648	1.43
360.017	1.67
360.387	1.56
360.756	1.44
361.125	1.56
361.494	1.55
361.863	1.5
362.231	1.55
362.6	1.54
362.969	1.53
363.338	1.49
363.707	1.81
364.075	1.76
364.444	1.5
364.813	1.5
365.181	1.54
365.55	1.48
365.918	1.69
366.287	1.52
366.655	1.58
367.024	1.56
367.392	1.59
367.76	1.5
368.128	1.72
368.497	1.53
368.865	1.49
369.233	1.5
369.601	1.49
369.969	1.6
370.337	1.66
370.705	1.51
371.073	1.52
371.441	1.51
371.809	1.47
372.177	1.65
372.544	1.58
372.912	1.69
373.28	1.5
373.647	1.69
374.015	1.53
374.383	1.77
374.75	1.6
375.118	1.53
375.485	1.66
375.853	1.63
376.22	1.5
376.587	1.56
376.955	1.58
377.322	1.63
377.689	1.62
378.056	1.44
378.423	1.52
378.79	1.58
379.157	1.55
379.524	1.59
379.891	1.5
380.258	1.56
380.625	1.49
380.992	1.67
381.359	1.46
381.726	1.63
382.092	1.44
382.459	1.53
382.826	1.58
383.192	1.63
383.559	1.5
383.925	1.5
384.292	1.44
384.658	1.76
385.025	1.66
385.391	1.66
385.757	1.63
386.123	1.5
386.49	1.55
386.856	1.58
387.222	1.68
387.588	1.48
387.954	1.77
388.32	1.64
388.686	1.72
389.052	1.68
389.418	1.6
389.784	1.43
390.15	1.77
390.515	1.41
390.881	1.79
391.247	1.43
391.613	1.79
391.978	1.53
392.344	1.67
392.709	1.65
393.075	1.57
393.44	1.68
393.806	1.92
394.171	1.44
394.536	1.4
394.902	1.51
395.267	1.5
395.632	1.47
395.997	1.54
396.362	1.37
396.727	1.62
397.092	1.51
397.457	1.49
397.822	1.57
398.187	1.63
398.552	1.49
398.917	1.65
399.282	1.44
399.646	1.6
400.011	1.79
400.376	1.51
400.74	1.55
401.105	1.58
401.47	1.62
401.834	1.61
402.199	1.65
402.563	1.59
402.927	1.49
403.292	1.5
403.656	1.7
404.02	1.53
404.384	1.75
404.749	1.58
405.113	1.59
405.477	1.6
405.841	1.5
406.205	1.56
406.569	1.56
406.933	1.55
407.296	1.56
407.66	1.57
408.024	1.54
408.388	1.61
408.752	1.56
409.115	1.74
409.479	1.59
409.842	1.63
410.206	1.44
410.569	1.51
410.933	1.56
411.296	1.47
411.66	1.49
412.023	1.44
412.386	1.53
412.749	1.36
413.113	1.56
413.476	1.65
413.839	1.45
414.202	1.53
414.565	1.47
414.928	1.52
415.291	1.44
415.654	1.45
416.017	1.66
416.38	1.49
416.742	1.38
417.105	1.65
417.468	1.54
417.83	1.48
418.193	1.59
418.556	1.47
418.918	1.45
419.281	1.46
419.643	1.57
420.005	1.63
420.368	1.6
420.73	1.54
421.092	1.67
421.455	1.65
421.817	1.5
422.179	1.41
422.541	1.59
422.903	1.79
423.265	1.69
423.627	1.55
423.989	1.44
424.351	1.48
424.713	1.55
425.075	1.62
425.436	1.44
425.798	1.55
426.16	1.55
426.521	1.47
426.883	1.58
427.245	1.64
427.606	1.5
427.967	1.45
428.329	1.56
428.69	1.69
429.052	1.49
429.413	1.67
429.774	1.59
430.135	1.51
430.497	1.55
430.858	1.55
431.219	1.55
431.58	1.51
431.941	1.46
432.302	1.53
432.663	1.54
433.024	1.65
433.384	1.55
433.745	1.53
434.106	1.52
434.467	1.46
434.827	1.49
435.188	1.59
435.548	1.75
435.909	1.55
436.269	1.53
436.63	1.71
436.99	1.58
437.351	1.42
437.711	1.55
438.071	1.51
438.431	1.49
438.792	1.53
439.152	1.45
439.512	1.54
439.872	1.54
440.232	1.64
440.592	1.55
440.952	1.58
441.312	1.45
441.671	1.44
442.031	1.54
442.391	1.5
442.751	1.53
443.11	1.5
443.47	1.41
443.83	1.35
444.189	1.43
444.549	1.43
444.908	1.48
445.267	1.42
445.627	1.48
445.986	1.48
446.345	1.4
446.705	1.42
447.064	1.45
447.423	1.44
447.782	1.41
448.141	1.35
448.5	1.3
448.859	1.39
449.218	1.37
449.577	1.41
449.936	1.4
450.295	1.38
450.653	1.38
451.012	1.35
451.371	1.36
451.729	1.33
452.088	1.37
452.447	1.31
452.805	1.3
453.163	1.33
453.522	1.31
453.88	1.28
454.239	1.3
454.597	1.26
454.955	1.23
455.313	1.25
455.671	1.22
456.029	1.25
456.388	1.22
456.746	1.21
457.104	1.17
457.461	1.18
457.819	1.15
458.177	1.14
458.535	1.12
458.893	1.12
459.25	1.13
459.608	1.11
459.966	1.06
460.323	1.04
460.681	1.03
461.038	1.03
461.396	1.01
461.753	1
462.111	1
462.468	0.97
462.825	0.95
463.182	0.94
463.54	0.92
463.897	0.94
464.254	0.9
464.611	0.91
464.968	0.88
465.325	0.86
465.682	0.85
466.039	0.86
466.395	0.82
466.752	0.81
467.109	0.81
467.466	0.8
467.822	0.77
468.179	0.75
468.535	0.76
468.892	0.74
469.248	0.73
469.605	0.71
469.961	0.72
470.318	0.71
470.674	0.69
471.03	0.68
471.386	0.66
471.743	0.65
472.099	0.63
472.455	0.63
472.811	0.61
473.167	0.6
473.523	0.58
473.879	0.57
474.235	0.58
474.59	0.56
474.946	0.54
475.302	0.54
475.657	0.53
476.013	0.52
476.369	0.5
476.724	0.5
477.08	0.49
477.435	0.48
477.791	0.48
478.146	0.47
478.501	0.45
478.857	0.45
479.212	0.43
479.567	0.42
479.922	0.42
480.277	0.41
480.632	0.4
480.987	0.4
481.342	0.38
481.697	0.38
482.052	0.37
482.407	0.36
482.762	0.35
483.116	0.34
483.471	0.34
483.826	0.32
484.18	0.32
484.535	0.31
484.89	0.31
485.244	0.3
485.598	0.3
485.953	0.29
486.307	0.28
486.661	0.28
487.016	0.27
487.37	0.27
487.724	0.26
488.078	0.25
488.432	0.25
488.786	0.24
489.14	0.24
489.494	0.23
489.848	0.23
490.202	0.22
490.556	0.22
490.91	0.21
491.263	0.2
491.617	0.2
491.971	0.19
492.324	0.19
492.678	0.19
493.031	0.19
493.385	0.18
493.738	0.18
494.091	0.17
494.445	0.17
494.798	0.17
495.151	0.16
495.504	0.16
495.857	0.15
496.21	0.15
496.564	0.15
496.916	0.15
497.269	0.14
497.622	0.14
497.975	0.14
498.328	0.13
498.681	0.13
499.033	0.12
499.386	0.13
499.739	0.12
500.091	0.12
500.444	0.11
500.796	0.12
501.149	0.11
501.501	0.11
501.854	0.1
502.206	0.1
502.558	0.1
502.91	0.1
503.263	0.09
503.615	0.09
503.967	0.09
504.319	0.09
504.671	0.09
505.023	0.09
505.375	0.08
505.726	0.08
506.078	0.08
506.43	0.07
506.782	0.07
507.133	0.08
507.485	0.07
507.837	0.08
508.188	0.08
508.54	0.08
508.891	0.07
509.243	0.07
509.594	0.06
509.945	0.06
510.296	0.06
510.648	0.06
510.999	0.05
511.35	0.05
511.701	0.06
512.052	0.06
512.403	0.05
512.754	0.06
513.105	0.06
513.456	0.06
513.807	0.05
514.157	0.05
514.508	0.06
514.859	0.05
515.209	0.05
515.56	0.05
515.91	0.05
516.261	0.05
516.611	0.04
516.962	0.05
517.312	0.04
517.662	0.04
518.013	0.04
518.363	0.04
518.713	0.05
519.063	0.04
519.413	0.04
519.763	0.04
520.113	0.04
520.463	0.05
520.813	0.05
521.163	0.05
521.512	0.04
521.862	0.04
522.212	0.04
522.562	0.04
522.911	0.04
523.261	0.04
523.61	0.04
523.96	0.04
524.309	0.04
524.658	0.04
525.008	0.03
525.357	0.04
525.706	0.04
526.056	0.04
526.405	0.04
526.754	0.04
527.103	0.03
527.452	0.03
527.801	0.04
528.15	0.04
528.499	0.03
528.847	0.04
529.196	0.04
529.545	0.04
529.893	0.04
530.242	0.04
530.591	0.04
530.939	0.04
531.288	0.04
531.636	0.04
531.985	0.04
532.333	0.04
532.681	0.04
533.029	0.04
533.378	0.04
533.726	0.04
534.074	0.04
534.422	0.03
534.77	0.04
535.118	0.04
535.466	0.03
535.814	0.04
536.162	0.04
536.509	0.04
536.857	0.04
537.205	0.04
537.552	0.04
537.9	0.03
538.248	0.03
538.595	0.04
538.943	0.04
539.29	0.04
539.637	0.03
539.985	0.03
540.332	0.03
540.679	0.03
541.026	0.03
541.373	0.04
541.721	0.02
542.068	0.03
542.415	0.03
542.762	0.03
543.108	0.02
543.455	0.01
543.802	0.03
544.149	0.02
544.496	0.02
544.842	0.02
545.189	0.01
545.535	0.02
545.882	0.02
546.228	0.02
546.575	0.02
546.921	0.01
547.267	0.01
547.614	0.02
547.96	0.01
548.306	0.02
548.652	0.01
548.998	0.02
549.344	0.02
549.69	0.02
550.036	0.02
550.382	0.01
550.728	0.02
551.074	0.02
551.42	0.02
551.765	0.02
552.111	0.03
552.457	0.03
552.802	0.02
553.148	0.02
553.493	0.02
553.839	0.03
554.184	0.03
554.529	0.01
554.875	0.02
555.22	0.03
555.565	0.03
555.91	0.02
556.255	0.03
556.6	0.03
556.945	0.02
557.29	0.02
557.635	0.02
557.98	0.02
558.325	0.02
558.67	0.02
559.014	0.02
559.359	0.03
559.704	0.02
560.048	0.01
560.393	0.03
560.737	0.01
561.082	0.02
561.426	0.01
561.77	0.02
562.115	0.01
562.459	0.02
562.803	0.02
563.147	0.01
563.491	0.01
563.835	0.02
564.179	0.02
564.523	0.01
564.867	0.02
565.211	0.02
565.555	0.02
565.899	0.02
566.242	0.02
566.586	0.01
566.93	0.02
567.273	0.03
567.617	0.02
567.96	0.02
568.304	0.03
568.647	0.02
568.99	0.02
569.334	0.03
569.677	0.02
570.02	0.03
570.363	0.02
570.706	0.02
571.049	0.02
571.392	0.03
571.735	0.02
572.078	0.02
572.421	0.03
572.764	0.02
573.106	0.03
573.449	0.01
573.792	0.02
574.134	0.01
574.477	0.02
574.819	0.01
575.162	0.01
575.504	0.01
575.847	0.02
576.189	0.02
576.531	0.02
576.873	0.01
577.215	0.02
577.558	0.02
577.9	0.02
578.242	0.01
578.584	0.02
578.926	0.02
579.267	0.02
579.609	0.02
579.951	0.02
580.293	0.02
580.634	0.03
580.976	0.02
581.318	0.02
581.659	0.02
582.001	0.02
582.342	0.02
582.683	0.03
583.025	0.02
583.366	0.02
583.707	0.01
584.049	0.01
584.39	0.01
584.731	0.01
585.072	0.01
585.413	0.03
585.754	0.02
586.095	0.02
586.435	0.02
586.776	0.02
587.117	0.02
587.458	0.02
587.798	0.02
588.139	0.02
588.48	0.01
588.82	0.02
589.161	0.01
589.501	0.02
589.841	0.01
590.182	0.01
590.522	0.01
590.862	0.02
591.202	0.02
591.542	0.02
591.882	0.02
592.222	0.02
592.562	0.02
592.902	0.02
593.242	0.01
593.582	0.02
593.922	0.02
594.261	0.01
594.601	0.02
594.941	0.02
595.28	0.01
595.62	0.02
595.959	0.02
596.299	0.02
596.638	0.02
596.977	0.02
597.317	0.02
597.656	0.02
597.995	0.02
598.334	0.03
598.673	0.02
599.012	0.02
599.351	0.03
599.69	0.01
600.029	0.02
600.368	0.02
600.707	0.01
601.046	0.02
601.384	0.02
601.723	0.02
602.061	0.02
602.4	0.02
602.738	0.03
603.077	0.02
603.415	0.01
603.754	0.02
604.092	0.02
604.43	0.02
604.768	0.03
605.107	0.02
605.445	0.02
605.783	0.02
606.121	0.02
606.459	0.02
606.796	0.02
607.134	0.02
607.472	0.02
607.81	0.02
608.148	0.01
608.485	0.02
608.823	0.02
609.16	0.02
609.498	0.02
609.835	0.02
610.173	0.02
610.51	0.02
610.847	0.02
611.185	0.02
611.522	0.03
611.859	0.03
612.196	0.02
612.533	0.03
612.87	0.03
613.207	0.04
613.544	0.03
613.881	0.04
614.217	0.03
614.554	0.03
614.891	0.03
615.228	0.03
615.564	0.03
615.901	0.03
616.237	0.03
616.574	0.03
616.91	0.03
617.246	0.03
617.583	0.03
617.919	0.03
618.255	0.04
618.591	0.03
618.927	0.03
619.263	0.04
619.599	0.04
619.935	0.04
620.271	0.03
620.607	0.04
620.943	0.03
621.279	0.04
621.614	0.04
621.95	0.04
622.286	0.03
622.621	0.03
622.957	0.03
623.292	0.02
623.627	0.02
623.963	0.02
624.298	0.02
624.633	0.02
624.968	0.02
625.304	0.02
625.639	0.02
625.974	0.02
626.309	0.02
626.644	0.02
626.979	0.03
627.313	0.02
627.648	0.02
627.983	0.02
628.318	0.02
628.652	0.01
628.987	0.02
629.321	0.02
629.656	0.01
629.99	0.02
630.325	0.02
630.659	0.02
630.993	0.02
631.327	0.03
631.662	0.02
631.996	0.02
632.33	0.02
632.664	0.02
632.998	0.01
633.332	0.02
633.666	0.02
633.999	0.02
634.333	0.02
634.667	0.02
635.001	0.02
635.334	0.02
635.668	0.02
636.001	0.02
636.335	0.02
636.668	0.02
637.001	0.02
637.335	0.01
637.668	0.01
638.001	0.01
638.334	0.02
638.668	0.01
639.001	0.02
639.334	0.01
639.667	0.01
639.999	0.01
640.332	0.01
640.665	0.01
640.998	0.01
641.331	0.01
641.663	0.01
641.996	0.01
642.328	0.02
642.661	0.01
642.993	0.02
643.326	0.02
643.658	0.01
643.99	0.01
644.323	0.01
644.655	0.02
644.987	0.02
645.319	0.01
645.651	0.02
645.983	0.01
646.315	0.01
646.647	0.02
646.979	0.02
647.31	0.02
647.642	0.02
647.974	0.01
648.305	0.03
648.637	0.02
648.968	0.03
649.3	0.02
649.631	0.02
649.963	0.02
650.294	0.02
650.625	0.02
650.957	0.03
651.288	0.03
651.619	0.03
651.95	0.03
652.281	0.02
652.612	0.03
652.943	0.03
653.274	0.03
653.604	0.02
653.935	0.02
654.266	0.03
654.596	0.02
654.927	0.03
655.258	0.03
655.588	0.03
655.918	0.03
656.249	0.01
656.579	0.02
656.909	0.03
657.24	0.02
657.57	0.03
657.9	0.02
658.23	0.03
658.56	0.03
658.89	0.04
659.22	0.03
659.55	0.03
659.88	0.04
660.209	0.03
660.539	0.04
660.869	0.03
661.198	0.04
661.528	0.03
661.857	0.04
662.187	0.04
662.516	0.03
662.846	0.03
663.175	0.04
663.504	0.03
663.833	0.03
664.163	0.04
664.492	0.03
664.821	0.03
665.15	0.03
665.479	0.04
665.807	0.03
666.136	0.03
666.465	0.03
666.794	0.03
667.122	0.03
667.451	0.02
667.78	0.03
668.108	0.03
668.437	0.02
668.765	0.03
669.093	0.03
669.422	0.03
669.75	0.04
670.078	0.03
670.406	0.03
670.734	0.03
671.062	0.03
671.39	0.03
671.718	0.03
672.046	0.03
672.374	0.03
672.702	0.03
673.029	0.02
673.357	0.03
673.685	0.04
674.012	0.03
674.34	0.04
674.667	0.03
674.995	0.03
675.322	0.04
675.649	0.03
675.977	0.03
676.304	0.04
676.631	0.04
676.958	0.03
677.285	0.03
677.612	0.03
677.939	0.03
678.266	0.04
678.593	0.04
678.92	0.04
679.246	0.03
679.573	0.03
679.9	0.03
680.226	0.03
680.553	0.03
680.879	0.03
681.206	0.04
681.532	0.03
681.858	0.03
682.184	0.03
682.511	0.03
682.837	0.03
683.163	0.03
683.489	0.03
683.815	0.02
684.141	0.02
684.467	0.03
684.793	0.02
685.118	0.03
685.444	0.03
685.77	0.03
686.095	0.03
686.421	0.03
686.746	0.03
687.072	0.03
687.397	0.03
687.723	0.04
688.048	0.04
688.373	0.04
688.698	0.04
689.023	0.03
689.349	0.04
689.674	0.03
689.999	0.03
690.323	0.03
690.648	0.03
690.973	0.03
691.298	0.03
691.623	0.03
691.947	0.03
692.272	0.02
692.596	0.03
692.921	0.03
693.245	0.03
693.57	0.03
693.894	0.03
694.218	0.03
694.543	0.02
694.867	0.03
695.191	0.03
695.515	0.03
695.839	0.03
696.163	0.03
696.487	0.03
696.811	0.03
697.135	0.03
697.458	0.03
697.782	0.03
698.106	0.03
698.429	0.03
698.753	0.02
699.076	0.03
699.4	0.03
699.723	0.03
700.046	0.02
700.37	0.04
700.693	0.04
701.016	0.03
701.339	0.03
701.662	0.04
701.985	0.03
702.308	0.03
702.631	0.04
702.954	0.03
703.277	0.03
703.599	0.03
703.922	0.02
704.245	0.02
704.567	0.02
704.89	0.03
705.212	0.02
705.535	0.02
705.857	0.02
706.179	0.02
706.502	0.02
706.824	0.02
707.146	0.02
707.468	0.02
707.79	0.02
708.112	0.03
708.434	0.02
708.756	0.03
709.078	0.02
709.399	0.03
709.721	0.03
710.043	0.03
710.364	0.03
710.686	0.03
711.007	0.03
711.329	0.03
711.65	0.03
711.972	0.03
712.293	0.03
712.614	0.03
712.935	0.03
713.256	0.03
713.577	0.03
713.898	0.03
714.219	0.03
714.54	0.02
714.861	0.02
715.182	0.03
715.503	0.02
715.823	0.03
716.144	0.03
716.464	0.02
716.785	0.02
717.105	0.02
717.426	0.03
717.746	0.02
718.066	0.02
718.387	0.02
718.707	0.01
719.027	0.03
719.347	0.01
719.667	0.02
719.987	0.01
720.307	0.01
720.627	0.02
720.947	0.01
721.266	0.02
721.586	0.01
721.906	0.02
722.225	0.02
722.545	0.02
