Data from 12-12-AQDScycling_Absorbance__155__00155.txt Node

Date: Tue Dec 12 11:35:29 EST 2023
User: kyuminlee
Spectrometer: FLMS00943
Trigger mode: 0
Integration Time (sec): 1.000000E-1
Scans to average: 1
Electric dark correction enabled: true
Nonlinearity correction enabled: false
Boxcar width: 0
XAxis mode: Wavelengths
Number of Pixels in Spectrum: 2048
>>>>>Begin Spectral Data<<<<<
179.651	0.47
180.037	0.47
180.424	0.47
180.81	0.6
181.197	0.24
181.583	-0
181.97	-0.03
182.356	-0
182.743	-0
183.129	1.23
183.515	1.58
183.901	-2.55
184.288	0.24
184.674	-0
185.06	-0
185.446	-0
185.832	-0
186.218	0.2
186.604	-0
186.99	-0
187.376	-0
187.762	-0.2
188.148	-0.06
188.534	-0.44
188.92	0.13
189.305	0.08
189.691	0.23
190.077	0.17
190.463	-0.02
190.848	0.07
191.234	0.11
191.619	0.11
192.005	0.24
192.391	0.2
192.776	0.29
193.161	0.09
193.547	0.17
193.932	0.06
194.318	0.05
194.703	0.03
195.088	0.3
195.473	0.12
195.859	0.15
196.244	0.28
196.629	0.09
197.014	0.01
197.399	0.14
197.784	0.14
198.169	0.13
198.554	0.2
198.939	0.14
199.324	0.03
199.709	-0.02
200.094	0.12
200.478	0.11
200.863	0.24
201.248	0.06
201.633	0.14
202.017	0.13
202.402	0.23
202.787	0.08
203.171	0.17
203.556	0.23
203.94	0.16
204.325	0.21
204.709	0.17
205.093	0.02
205.478	0.21
205.862	0.13
206.246	0.01
206.631	0.09
207.015	0.09
207.399	0.14
207.783	0.05
208.167	0.2
208.551	0.17
208.935	0.22
209.319	0.16
209.703	0.14
210.087	0.16
210.471	0.15
210.855	0.12
211.239	0.26
211.623	0.13
212.007	0.3
212.39	0.21
212.774	0.22
213.158	0.22
213.541	0.28
213.925	0.3
214.309	0.36
214.692	0.33
215.076	0.21
215.459	0.12
215.842	0.05
216.226	0.19
216.609	0.25
216.993	0.14
217.376	0.56
217.759	0.15
218.142	0.26
218.525	0.53
218.909	0.28
219.292	0.37
219.675	0.36
220.058	0.51
220.441	0.51
220.824	0.45
221.207	0.55
221.59	0.53
221.973	0.5
222.355	0.7
222.738	0.65
223.121	0.6
223.504	0.47
223.886	0.77
224.269	0.62
224.652	0.75
225.034	0.92
225.417	0.74
225.799	1.01
226.182	0.76
226.564	0.77
226.947	0.77
227.329	0.77
227.711	0.96
228.094	1.01
228.476	1.01
228.858	0.81
229.24	0.74
229.623	0.91
230.005	0.73
230.387	0.85
230.769	0.81
231.151	1.08
231.533	0.87
231.915	0.93
232.297	1.08
232.679	0.89
233.061	0.92
233.442	1.01
233.824	1.13
234.206	1.06
234.588	1.07
234.969	1.06
235.351	0.97
235.733	0.99
236.114	1.07
236.496	1.32
236.877	1.06
237.259	1.13
237.64	1.1
238.022	1.04
238.403	1.03
238.784	1.01
239.165	0.94
239.547	1
239.928	1.07
240.309	1.02
240.69	1.08
241.071	1
241.452	1.04
241.834	0.99
242.215	1.12
242.595	1.19
242.976	1.08
243.357	1.11
243.738	1.01
244.119	1.21
244.5	1.13
244.881	1.31
245.261	1.14
245.642	1.15
246.023	1.25
246.403	1.22
246.784	1.21
247.164	1.26
247.545	1.24
247.925	1.26
248.306	1.18
248.686	1.49
249.067	1.25
249.447	1.4
249.827	1.6
250.207	1.25
250.588	1.22
250.968	1.57
251.348	1.39
251.728	1.48
252.108	1.36
252.488	1.3
252.868	1.3
253.248	1.36
253.628	1.31
254.008	1.45
254.388	1.37
254.768	1.43
255.147	1.58
255.527	1.48
255.907	1.4
256.287	1.38
256.666	1.48
257.046	1.47
257.425	1.52
257.805	1.25
258.184	1.25
258.564	1.3
258.943	1.31
259.323	1.44
259.702	1.42
260.081	1.5
260.461	1.47
260.84	1.54
261.219	1.53
261.598	1.47
261.977	1.43
262.356	1.39
262.736	1.4
263.115	1.59
263.494	1.46
263.873	1.69
264.251	1.48
264.63	1.46
265.009	1.59
265.388	1.36
265.767	1.32
266.145	1.52
266.524	1.5
266.903	1.44
267.281	1.35
267.66	1.45
268.039	1.45
268.417	1.42
268.796	1.41
269.174	1.3
269.552	1.48
269.931	1.51
270.309	1.36
270.687	1.42
271.066	1.54
271.444	1.29
271.822	1.64
272.2	1.46
272.578	1.41
272.956	1.57
273.334	1.31
273.712	1.51
274.09	1.33
274.468	1.36
274.846	1.31
275.224	1.3
275.602	1.36
275.98	1.69
276.357	1.5
276.735	1.43
277.113	1.35
277.49	1.29
277.868	1.35
278.246	1.35
278.623	1.34
279.001	1.35
279.378	1.3
279.756	1.56
280.133	1.55
280.51	1.48
280.888	1.38
281.265	1.39
281.642	1.49
282.019	1.51
282.396	1.48
282.773	1.35
283.151	1.54
283.528	1.64
283.905	1.52
284.282	1.54
284.659	1.5
285.035	1.29
285.412	1.38
285.789	1.56
286.166	1.45
286.543	1.46
286.919	1.52
287.296	1.39
287.673	1.66
288.049	1.44
288.426	1.49
288.802	1.43
289.179	1.44
289.555	1.55
289.932	1.51
290.308	1.32
290.684	1.38
291.061	1.38
291.437	1.57
291.813	1.32
292.189	1.3
292.565	1.38
292.942	1.3
293.318	1.45
293.694	1.43
294.07	1.27
294.446	1.38
294.822	1.5
295.197	1.4
295.573	1.43
295.949	1.46
296.325	1.49
296.701	1.63
297.076	1.59
297.452	1.42
297.828	1.37
298.203	1.51
298.579	1.5
298.954	1.36
299.33	1.39
299.705	1.42
300.081	1.39
300.456	1.43
300.831	1.28
301.206	1.31
301.582	1.35
301.957	1.3
302.332	1.31
302.707	1.29
303.082	1.26
303.457	1.33
303.832	1.3
304.207	1.2
304.582	1.22
304.957	1.21
305.332	1.2
305.707	1.19
306.082	1.27
306.456	1.2
306.831	1.19
307.206	1.18
307.58	1.17
307.955	1.2
308.33	1.17
308.704	1.11
309.079	1.12
309.453	1.18
309.828	1.2
310.202	1.05
310.576	1.06
310.951	1.1
311.325	1.08
311.699	1.05
312.073	1.06
312.447	1.08
312.821	0.98
313.196	1.04
313.57	0.96
313.944	0.94
314.317	0.98
314.691	1.03
315.065	1.07
315.439	1.05
315.813	1.02
316.187	1.02
316.56	1.04
316.934	1.04
317.308	0.97
317.681	0.96
318.055	1.02
318.428	1.01
318.802	1
319.175	0.96
319.549	1.01
319.922	0.97
320.295	0.96
320.669	1.06
321.042	1.01
321.415	1.01
321.788	1
322.162	0.99
322.535	1.04
322.908	1
323.281	0.99
323.654	1.03
324.027	0.99
324.4	1.03
324.773	0.95
325.145	1.03
325.518	1
325.891	0.98
326.264	0.99
326.636	0.99
327.009	1.02
327.382	0.99
327.754	1.08
328.127	0.99
328.499	1.06
328.872	0.98
329.244	1.04
329.616	1.03
329.989	1.04
330.361	1.05
330.733	0.99
331.106	1.03
331.478	1.09
331.85	1.01
332.222	1.07
332.594	1.08
332.966	1.1
333.338	1.14
333.71	1.15
334.082	1.15
334.454	1.14
334.826	1.05
335.197	1.07
335.569	1.08
335.941	1.09
336.312	1.1
336.684	1.09
337.056	1.13
337.427	1.17
337.799	1.16
338.17	1.14
338.542	1.1
338.913	1.18
339.284	1.17
339.656	1.15
340.027	1.13
340.398	1.2
340.769	1.16
341.141	1.24
341.512	1.16
341.883	1.21
342.254	1.18
342.625	1.17
342.996	1.21
343.367	1.15
343.738	1.28
344.108	1.15
344.479	1.28
344.85	1.12
345.221	1.18
345.591	1.17
345.962	1.24
346.333	1.24
346.703	1.1
347.074	1.2
347.444	1.13
347.815	1.18
348.185	1.18
348.556	1.21
348.926	1.26
349.296	1.25
349.666	1.23
350.037	1.23
350.407	1.13
350.777	1.25
351.147	1.29
351.517	1.24
351.887	1.26
352.257	1.32
352.627	1.2
352.997	1.23
353.367	1.3
353.737	1.4
354.106	1.35
354.476	1.25
354.846	1.34
355.216	1.46
355.585	1.44
355.955	1.47
356.324	1.42
356.694	1.43
357.063	1.37
357.433	1.37
357.802	1.39
358.171	1.42
358.541	1.53
358.91	1.38
359.279	1.48
359.648	1.41
360.017	1.53
360.387	1.42
360.756	1.42
361.125	1.51
361.494	1.43
361.863	1.49
362.231	1.4
362.6	1.41
362.969	1.59
363.338	1.45
363.707	1.58
364.075	1.62
364.444	1.43
364.813	1.39
365.181	1.6
365.55	1.57
365.918	1.68
366.287	1.5
366.655	1.58
367.024	1.61
367.392	1.51
367.76	1.51
368.128	1.53
368.497	1.46
368.865	1.51
369.233	1.55
369.601	1.61
369.969	1.5
370.337	1.62
370.705	1.51
371.073	1.55
371.441	1.5
371.809	1.44
372.177	1.66
372.544	1.59
372.912	1.63
373.28	1.56
373.647	1.55
374.015	1.57
374.383	1.81
374.75	1.59
375.118	1.56
375.485	1.54
375.853	1.59
376.22	1.49
376.587	1.47
376.955	1.76
377.322	1.7
377.689	1.55
378.056	1.64
378.423	1.45
378.79	1.5
379.157	1.53
379.524	1.57
379.891	1.56
380.258	1.52
380.625	1.48
380.992	1.59
381.359	1.56
381.726	1.74
382.092	1.5
382.459	1.47
382.826	1.56
383.192	1.6
383.559	1.66
383.925	1.5
384.292	1.53
384.658	1.69
385.025	1.49
385.391	1.67
385.757	1.61
386.123	1.53
386.49	1.57
386.856	1.58
387.222	1.55
387.588	1.64
387.954	1.71
388.32	1.64
388.686	1.52
389.052	1.64
389.418	1.69
389.784	1.46
390.15	1.64
390.515	1.46
390.881	1.6
391.247	1.47
391.613	1.63
391.978	1.49
392.344	1.59
392.709	1.59
393.075	1.68
393.44	1.53
393.806	1.5
394.171	1.37
394.536	1.54
394.902	1.56
395.267	1.51
395.632	1.4
395.997	1.49
396.362	1.41
396.727	1.66
397.092	1.61
397.457	1.55
397.822	1.62
398.187	1.6
398.552	1.44
398.917	1.65
399.282	1.57
399.646	1.53
400.011	1.68
400.376	1.49
400.74	1.49
401.105	1.51
401.47	1.62
401.834	1.5
402.199	1.56
402.563	1.49
402.927	1.58
403.292	1.67
403.656	1.55
404.02	1.64
404.384	1.69
404.749	1.57
405.113	1.64
405.477	1.56
405.841	1.53
406.205	1.53
406.569	1.71
406.933	1.53
407.296	1.55
407.66	1.64
408.024	1.51
408.388	1.75
408.752	1.6
409.115	1.54
409.479	1.53
409.842	1.41
410.206	1.38
410.569	1.56
410.933	1.61
411.296	1.48
411.66	1.5
412.023	1.35
412.386	1.64
412.749	1.39
413.113	1.59
413.476	1.52
413.839	1.65
414.202	1.44
414.565	1.6
414.928	1.42
415.291	1.55
415.654	1.53
416.017	1.61
416.38	1.5
416.742	1.35
417.105	1.48
417.468	1.47
417.83	1.49
418.193	1.51
418.556	1.34
418.918	1.52
419.281	1.56
419.643	1.45
420.005	1.5
420.368	1.63
420.73	1.52
421.092	1.53
421.455	1.59
421.817	1.38
422.179	1.38
422.541	1.51
422.903	1.51
423.265	1.52
423.627	1.45
423.989	1.61
424.351	1.51
424.713	1.55
425.075	1.34
425.436	1.41
425.798	1.47
426.16	1.52
426.521	1.48
426.883	1.53
427.245	1.53
427.606	1.41
427.967	1.42
428.329	1.4
428.69	1.55
429.052	1.41
429.413	1.46
429.774	1.44
430.135	1.51
430.497	1.51
430.858	1.43
431.219	1.4
431.58	1.43
431.941	1.41
432.302	1.39
432.663	1.52
433.024	1.61
433.384	1.42
433.745	1.4
434.106	1.59
434.467	1.39
434.827	1.52
435.188	1.42
435.548	1.63
435.909	1.43
436.269	1.51
436.63	1.38
436.99	1.49
437.351	1.38
437.711	1.42
438.071	1.33
438.431	1.37
438.792	1.47
439.152	1.32
439.512	1.33
439.872	1.33
440.232	1.43
440.592	1.42
440.952	1.3
441.312	1.32
441.671	1.36
442.031	1.42
442.391	1.35
442.751	1.36
443.11	1.41
443.47	1.31
443.83	1.28
444.189	1.3
444.549	1.3
444.908	1.26
445.267	1.32
445.627	1.26
445.986	1.27
446.345	1.23
446.705	1.25
447.064	1.29
447.423	1.27
447.782	1.29
448.141	1.24
448.5	1.17
448.859	1.21
449.218	1.2
449.577	1.21
449.936	1.16
450.295	1.24
450.653	1.2
451.012	1.21
451.371	1.2
451.729	1.18
452.088	1.15
452.447	1.15
452.805	1.12
453.163	1.15
453.522	1.15
453.88	1.11
454.239	1.12
454.597	1.09
454.955	1.08
455.313	1.05
455.671	1.08
456.029	1.05
456.388	1.05
456.746	1.02
457.104	1.03
457.461	1.02
457.819	1
458.177	0.99
458.535	0.97
458.893	0.96
459.25	0.94
459.608	0.93
459.966	0.91
460.323	0.92
460.681	0.89
461.038	0.88
461.396	0.87
461.753	0.87
462.111	0.86
462.468	0.83
462.825	0.83
463.182	0.8
463.54	0.8
463.897	0.8
464.254	0.79
464.611	0.79
464.968	0.76
465.325	0.77
465.682	0.74
466.039	0.72
466.395	0.72
466.752	0.72
467.109	0.7
467.466	0.7
467.822	0.7
468.179	0.67
468.535	0.67
468.892	0.66
469.248	0.64
469.605	0.63
469.961	0.62
470.318	0.62
470.674	0.61
471.03	0.59
471.386	0.59
471.743	0.58
472.099	0.58
472.455	0.56
472.811	0.55
473.167	0.54
473.523	0.52
473.879	0.53
474.235	0.51
474.59	0.5
474.946	0.49
475.302	0.48
475.657	0.48
476.013	0.47
476.369	0.45
476.724	0.45
477.08	0.45
477.435	0.45
477.791	0.44
478.146	0.43
478.501	0.42
478.857	0.43
479.212	0.41
479.567	0.4
479.922	0.39
480.277	0.39
480.632	0.38
480.987	0.37
481.342	0.36
481.697	0.36
482.052	0.35
482.407	0.35
482.762	0.34
483.116	0.33
483.471	0.32
483.826	0.31
484.18	0.31
484.535	0.31
484.89	0.31
485.244	0.3
485.598	0.3
485.953	0.29
486.307	0.29
486.661	0.29
487.016	0.28
487.37	0.27
487.724	0.27
488.078	0.27
488.432	0.26
488.786	0.26
489.14	0.26
489.494	0.24
489.848	0.24
490.202	0.24
490.556	0.24
490.91	0.23
491.263	0.23
491.617	0.23
491.971	0.23
492.324	0.22
492.678	0.22
493.031	0.21
493.385	0.21
493.738	0.2
494.091	0.2
494.445	0.2
494.798	0.2
495.151	0.2
495.504	0.2
495.857	0.19
496.21	0.19
496.564	0.18
496.916	0.2
497.269	0.18
497.622	0.19
497.975	0.18
498.328	0.19
498.681	0.18
499.033	0.17
499.386	0.18
499.739	0.17
500.091	0.16
500.444	0.16
500.796	0.16
501.149	0.16
501.501	0.17
501.854	0.16
502.206	0.16
502.558	0.16
502.91	0.15
503.263	0.16
503.615	0.16
503.967	0.15
504.319	0.15
504.671	0.15
505.023	0.14
505.375	0.15
505.726	0.14
506.078	0.14
506.43	0.14
506.782	0.13
507.133	0.14
507.485	0.14
507.837	0.14
508.188	0.14
508.54	0.14
508.891	0.15
509.243	0.13
509.594	0.13
509.945	0.14
510.296	0.13
510.648	0.14
510.999	0.12
511.35	0.13
511.701	0.13
512.052	0.13
512.403	0.13
512.754	0.13
513.105	0.12
513.456	0.12
513.807	0.12
514.157	0.12
514.508	0.12
514.859	0.11
515.209	0.12
515.56	0.12
515.91	0.11
516.261	0.12
516.611	0.11
516.962	0.11
517.312	0.12
517.662	0.12
518.013	0.12
518.363	0.12
518.713	0.11
519.063	0.11
519.413	0.12
519.763	0.11
520.113	0.12
520.463	0.12
520.813	0.12
521.163	0.12
521.512	0.12
521.862	0.12
522.212	0.12
522.562	0.12
522.911	0.12
523.261	0.11
523.61	0.12
523.96	0.12
524.309	0.12
524.658	0.12
525.008	0.12
525.357	0.11
525.706	0.12
526.056	0.11
526.405	0.12
526.754	0.11
527.103	0.11
527.452	0.12
527.801	0.12
528.15	0.12
528.499	0.11
528.847	0.11
529.196	0.12
529.545	0.12
529.893	0.12
530.242	0.12
530.591	0.12
530.939	0.13
531.288	0.12
531.636	0.12
531.985	0.12
532.333	0.12
532.681	0.12
533.029	0.12
533.378	0.12
533.726	0.12
534.074	0.13
534.422	0.11
534.77	0.13
535.118	0.12
535.466	0.12
535.814	0.11
536.162	0.12
536.509	0.12
536.857	0.12
537.205	0.12
537.552	0.12
537.9	0.12
538.248	0.11
538.595	0.12
538.943	0.12
539.29	0.12
539.637	0.11
539.985	0.12
540.332	0.11
540.679	0.11
541.026	0.11
541.373	0.11
541.721	0.11
542.068	0.11
542.415	0.11
542.762	0.1
543.108	0.11
543.455	0.11
543.802	0.1
544.149	0.11
544.496	0.1
544.842	0.11
545.189	0.1
545.535	0.1
545.882	0.11
546.228	0.11
546.575	0.1
546.921	0.11
547.267	0.11
547.614	0.12
547.96	0.11
548.306	0.1
548.652	0.11
548.998	0.11
549.344	0.11
549.69	0.11
550.036	0.11
550.382	0.11
550.728	0.12
551.074	0.12
551.42	0.12
551.765	0.12
552.111	0.12
552.457	0.12
552.802	0.11
553.148	0.11
553.493	0.11
553.839	0.12
554.184	0.11
554.529	0.11
554.875	0.12
555.22	0.11
555.565	0.12
555.91	0.12
556.255	0.13
556.6	0.12
556.945	0.11
557.29	0.11
557.635	0.12
557.98	0.11
558.325	0.12
558.67	0.11
559.014	0.12
559.359	0.11
559.704	0.11
560.048	0.11
560.393	0.12
560.737	0.1
561.082	0.11
561.426	0.11
561.77	0.11
562.115	0.1
562.459	0.1
562.803	0.11
563.147	0.11
563.491	0.11
563.835	0.11
564.179	0.1
564.523	0.11
564.867	0.1
565.211	0.11
565.555	0.12
565.899	0.11
566.242	0.11
566.586	0.1
566.93	0.11
567.273	0.12
567.617	0.11
567.96	0.12
568.304	0.12
568.647	0.12
568.99	0.12
569.334	0.12
569.677	0.11
570.02	0.11
570.363	0.12
570.706	0.11
571.049	0.12
571.392	0.12
571.735	0.11
572.078	0.11
572.421	0.12
572.764	0.11
573.106	0.11
573.449	0.11
573.792	0.11
574.134	0.11
574.477	0.12
574.819	0.11
575.162	0.11
575.504	0.11
575.847	0.11
576.189	0.12
576.531	0.11
576.873	0.11
577.215	0.11
577.558	0.12
577.9	0.11
578.242	0.11
578.584	0.11
578.926	0.11
579.267	0.11
579.609	0.1
579.951	0.11
580.293	0.11
580.634	0.11
580.976	0.11
581.318	0.1
581.659	0.09
582.001	0.1
582.342	0.1
582.683	0.11
583.025	0.1
583.366	0.1
583.707	0.11
584.049	0.11
584.39	0.1
584.731	0.11
585.072	0.1
585.413	0.11
585.754	0.11
586.095	0.11
586.435	0.12
586.776	0.11
587.117	0.12
587.458	0.11
587.798	0.11
588.139	0.11
588.48	0.1
588.82	0.1
589.161	0.11
589.501	0.1
589.841	0.11
590.182	0.1
590.522	0.1
590.862	0.11
591.202	0.1
591.542	0.11
591.882	0.1
592.222	0.11
592.562	0.11
592.902	0.1
593.242	0.11
593.582	0.11
593.922	0.1
594.261	0.1
594.601	0.11
594.941	0.11
595.28	0.11
595.62	0.11
595.959	0.11
596.299	0.1
596.638	0.1
596.977	0.11
597.317	0.11
597.656	0.11
597.995	0.09
598.334	0.11
598.673	0.1
599.012	0.1
599.351	0.11
599.69	0.1
600.029	0.1
600.368	0.1
600.707	0.1
601.046	0.1
601.384	0.11
601.723	0.11
602.061	0.1
602.4	0.1
602.738	0.11
603.077	0.1
603.415	0.1
603.754	0.1
604.092	0.1
604.43	0.1
604.768	0.11
605.107	0.1
605.445	0.1
605.783	0.1
606.121	0.1
606.459	0.1
606.796	0.11
607.134	0.09
607.472	0.1
607.81	0.11
608.148	0.1
608.485	0.11
608.823	0.11
609.16	0.1
609.498	0.11
609.835	0.1
610.173	0.1
610.51	0.11
610.847	0.1
611.185	0.11
611.522	0.11
611.859	0.1
612.196	0.11
612.533	0.11
612.87	0.11
613.207	0.11
613.544	0.11
613.881	0.12
614.217	0.11
614.554	0.11
614.891	0.12
615.228	0.11
615.564	0.11
615.901	0.12
616.237	0.12
616.574	0.11
616.91	0.12
617.246	0.12
617.583	0.12
617.919	0.12
618.255	0.12
618.591	0.12
618.927	0.11
619.263	0.12
619.599	0.12
619.935	0.12
620.271	0.12
620.607	0.11
620.943	0.12
621.279	0.12
621.614	0.11
621.95	0.12
622.286	0.11
622.621	0.1
622.957	0.11
623.292	0.1
623.627	0.1
623.963	0.1
624.298	0.11
624.633	0.1
624.968	0.1
625.304	0.1
625.639	0.1
625.974	0.1
626.309	0.09
626.644	0.1
626.979	0.11
627.313	0.1
627.648	0.1
627.983	0.1
628.318	0.1
628.652	0.1
628.987	0.1
629.321	0.1
629.656	0.09
629.99	0.09
630.325	0.11
630.659	0.1
630.993	0.1
631.327	0.1
631.662	0.1
631.996	0.1
632.33	0.09
632.664	0.1
632.998	0.09
633.332	0.09
633.666	0.1
633.999	0.09
634.333	0.09
634.667	0.09
635.001	0.09
635.334	0.1
635.668	0.09
636.001	0.08
636.335	0.09
636.668	0.09
637.001	0.08
637.335	0.09
637.668	0.09
638.001	0.09
638.334	0.09
638.668	0.08
639.001	0.09
639.334	0.09
639.667	0.09
639.999	0.09
640.332	0.09
640.665	0.09
640.998	0.09
641.331	0.09
641.663	0.08
641.996	0.09
642.328	0.09
642.661	0.09
642.993	0.09
643.326	0.1
643.658	0.09
643.99	0.09
644.323	0.09
644.655	0.09
644.987	0.1
645.319	0.09
645.651	0.1
645.983	0.09
646.315	0.08
646.647	0.09
646.979	0.1
647.31	0.1
647.642	0.09
647.974	0.1
648.305	0.1
648.637	0.1
648.968	0.1
649.3	0.1
649.631	0.1
649.963	0.09
650.294	0.1
650.625	0.1
650.957	0.1
651.288	0.1
651.619	0.1
651.95	0.09
652.281	0.1
652.612	0.09
652.943	0.1
653.274	0.1
653.604	0.09
653.935	0.09
654.266	0.09
654.596	0.09
654.927	0.09
655.258	0.09
655.588	0.09
655.918	0.09
656.249	0.08
656.579	0.09
656.909	0.09
657.24	0.09
657.57	0.09
657.9	0.1
658.23	0.09
658.56	0.1
658.89	0.1
659.22	0.09
659.55	0.1
659.88	0.1
660.209	0.1
660.539	0.1
660.869	0.1
661.198	0.1
661.528	0.1
661.857	0.09
662.187	0.1
662.516	0.1
662.846	0.09
663.175	0.1
663.504	0.09
663.833	0.09
664.163	0.09
664.492	0.09
664.821	0.09
665.15	0.09
665.479	0.09
665.807	0.09
666.136	0.09
666.465	0.09
666.794	0.09
667.122	0.08
667.451	0.08
667.78	0.09
668.108	0.09
668.437	0.09
668.765	0.09
669.093	0.09
669.422	0.09
669.75	0.09
670.078	0.09
670.406	0.09
670.734	0.09
671.062	0.09
671.39	0.08
671.718	0.08
672.046	0.09
672.374	0.09
672.702	0.09
673.029	0.08
673.357	0.09
673.685	0.09
674.012	0.09
674.34	0.08
674.667	0.09
674.995	0.08
675.322	0.09
675.649	0.08
675.977	0.09
676.304	0.09
676.631	0.08
676.958	0.08
677.285	0.08
677.612	0.08
677.939	0.08
678.266	0.08
678.593	0.08
678.92	0.08
679.246	0.08
679.573	0.08
679.9	0.08
680.226	0.07
680.553	0.07
680.879	0.07
681.206	0.08
681.532	0.07
681.858	0.07
682.184	0.07
682.511	0.08
682.837	0.07
683.163	0.08
683.489	0.08
683.815	0.08
684.141	0.08
684.467	0.08
684.793	0.07
685.118	0.07
685.444	0.08
685.77	0.07
686.095	0.07
686.421	0.07
686.746	0.07
687.072	0.08
687.397	0.07
687.723	0.08
688.048	0.09
688.373	0.08
688.698	0.08
689.023	0.07
689.349	0.08
689.674	0.07
689.999	0.08
690.323	0.07
690.648	0.06
690.973	0.06
691.298	0.07
691.623	0.07
691.947	0.07
692.272	0.06
692.596	0.07
692.921	0.07
693.245	0.07
693.57	0.07
693.894	0.07
694.218	0.06
694.543	0.06
694.867	0.06
695.191	0.06
695.515	0.07
695.839	0.06
696.163	0.06
696.487	0.06
696.811	0.06
697.135	0.07
697.458	0.06
697.782	0.07
698.106	0.07
698.429	0.06
698.753	0.06
699.076	0.07
699.4	0.06
699.723	0.06
700.046	0.06
700.37	0.06
700.693	0.07
701.016	0.06
701.339	0.07
701.662	0.07
701.985	0.07
702.308	0.07
702.631	0.07
702.954	0.07
703.277	0.07
703.599	0.07
703.922	0.06
704.245	0.07
704.567	0.06
704.89	0.07
705.212	0.07
705.535	0.06
705.857	0.06
706.179	0.06
706.502	0.06
706.824	0.05
707.146	0.05
707.468	0.07
707.79	0.06
708.112	0.06
708.434	0.06
708.756	0.07
709.078	0.06
709.399	0.05
709.721	0.06
710.043	0.07
710.364	0.07
710.686	0.06
711.007	0.06
711.329	0.07
711.65	0.06
711.972	0.06
712.293	0.07
712.614	0.06
712.935	0.06
713.256	0.07
713.577	0.07
713.898	0.05
714.219	0.05
714.54	0.06
714.861	0.05
715.182	0.06
715.503	0.06
715.823	0.06
716.144	0.05
716.464	0.05
716.785	0.06
717.105	0.05
717.426	0.05
717.746	0.06
718.066	0.05
718.387	0.05
718.707	0.05
719.027	0.06
719.347	0.04
719.667	0.05
719.987	0.05
720.307	0.04
720.627	0.04
720.947	0.04
721.266	0.05
721.586	0.04
721.906	0.04
722.225	0.04
722.545	0.04
722.864	0.05
723.184	0.05
723.503	0.04
723.823	0.04
724.142	0.05
724.461	0.05
724.78	0.04
725.099	0.04
725.418	0.05
725.737	0.04
726.056	0.05
726.375	0.05
