Data from 12-12-AQDScycling_Absorbance__142__00142.txt Node

Date: Tue Dec 12 11:32:14 EST 2023
User: kyuminlee
Spectrometer: FLMS00943
Trigger mode: 0
Integration Time (sec): 1.000000E-1
Scans to average: 1
Electric dark correction enabled: true
Nonlinearity correction enabled: false
Boxcar width: 0
XAxis mode: Wavelengths
Number of Pixels in Spectrum: 2048
>>>>>Begin Spectral Data<<<<<
179.651	-0.21
180.037	-0.21
180.424	-0.21
180.81	-0
181.197	0.35
181.583	-0
181.97	-0.39
182.356	-0
182.743	-0
183.129	0.42
183.515	0.17
183.901	-2.72
184.288	-0
184.674	-0
185.06	-1.14
185.446	-0
185.832	-0
186.218	0.36
186.604	0.41
186.99	-0
187.376	0.74
187.762	-0.21
188.148	0.57
188.534	-0.46
188.92	0.04
189.305	0.19
189.691	0.13
190.077	0.13
190.463	0.1
190.848	-0.01
191.234	-0.01
191.619	0.1
192.005	0.05
192.391	0.16
192.776	0.11
193.161	0.01
193.547	0.03
193.932	0.01
194.318	0.09
194.703	0.17
195.088	0.14
195.473	0.15
195.859	0.14
196.244	0.2
196.629	-0
197.014	0.03
197.399	0.13
197.784	0.18
198.169	0.13
198.554	0.18
198.939	0.06
199.324	0.2
199.709	0.12
200.094	0.04
200.478	0.08
200.863	0.15
201.248	0.33
201.633	0.32
202.017	0.1
202.402	0.16
202.787	0.08
203.171	0.06
203.556	0.14
203.94	0.2
204.325	0.27
204.709	0.11
205.093	0.11
205.478	0.15
205.862	-0.01
206.246	0.08
206.631	-0.01
207.015	0.22
207.399	0.17
207.783	0.14
208.167	0.14
208.551	0.22
208.935	0.16
209.319	0.12
209.703	0.14
210.087	0.19
210.471	0.12
210.855	0.02
211.239	0.24
211.623	0.3
212.007	0.18
212.39	0.23
212.774	0.28
213.158	0.18
213.541	0.28
213.925	0.22
214.309	0.23
214.692	0.22
215.076	0.15
215.459	0.03
215.842	0.07
216.226	0.18
216.609	0.29
216.993	0.1
217.376	0.31
217.759	0.2
218.142	0.41
218.525	0.36
218.909	0.49
219.292	0.39
219.675	0.44
220.058	0.39
220.441	0.37
220.824	0.48
221.207	0.44
221.59	0.48
221.973	0.51
222.355	0.6
222.738	0.6
223.121	0.53
223.504	0.56
223.886	0.7
224.269	0.7
224.652	0.74
225.034	0.75
225.417	0.67
225.799	0.83
226.182	0.86
226.564	0.86
226.947	0.68
227.329	0.82
227.711	0.88
228.094	1
228.476	0.93
228.858	0.71
229.24	0.72
229.623	0.92
230.005	0.94
230.387	0.81
230.769	0.86
231.151	1.08
231.533	1
231.915	0.93
232.297	0.95
232.679	0.91
233.061	0.95
233.442	1.1
233.824	1.04
234.206	1.14
234.588	1.07
234.969	1.04
235.351	0.95
235.733	0.98
236.114	1.23
236.496	1.08
236.877	1.03
237.259	1.02
237.64	1.05
238.022	1.05
238.403	1.07
238.784	1.01
239.165	0.89
239.547	1.04
239.928	0.94
240.309	0.96
240.69	1.06
241.071	1.12
241.452	1.07
241.834	1.08
242.215	1.02
242.595	1.03
242.976	1.13
243.357	1.03
243.738	1.04
244.119	1.22
244.5	1.14
244.881	1.22
245.261	1.27
245.642	1.22
246.023	1.02
246.403	1.12
246.784	1.24
247.164	1.23
247.545	1.15
247.925	1.3
248.306	1.22
248.686	1.39
249.067	1.24
249.447	1.33
249.827	1.54
250.207	1.43
250.588	1.22
250.968	1.52
251.348	1.33
251.728	1.44
252.108	1.32
252.488	1.54
252.868	1.32
253.248	1.3
253.628	1.42
254.008	1.48
254.388	1.29
254.768	1.27
255.147	1.3
255.527	1.44
255.907	1.37
256.287	1.35
256.666	1.23
257.046	1.44
257.425	1.51
257.805	1.31
258.184	1.2
258.564	1.27
258.943	1.25
259.323	1.41
259.702	1.49
260.081	1.39
260.461	1.47
260.84	1.45
261.219	1.66
261.598	1.39
261.977	1.45
262.356	1.52
262.736	1.42
263.115	1.57
263.494	1.51
263.873	1.39
264.251	1.5
264.63	1.53
265.009	1.4
265.388	1.34
265.767	1.35
266.145	1.52
266.524	1.4
266.903	1.39
267.281	1.37
267.66	1.54
268.039	1.37
268.417	1.34
268.796	1.46
269.174	1.4
269.552	1.27
269.931	1.48
270.309	1.32
270.687	1.61
271.066	1.61
271.444	1.26
271.822	1.41
272.2	1.33
272.578	1.41
272.956	1.48
273.334	1.32
273.712	1.28
274.09	1.44
274.468	1.41
274.846	1.35
275.224	1.2
275.602	1.32
275.98	1.48
276.357	1.35
276.735	1.37
277.113	1.37
277.49	1.46
277.868	1.25
278.246	1.37
278.623	1.2
279.001	1.3
279.378	1.33
279.756	1.45
280.133	1.4
280.51	1.47
280.888	1.35
281.265	1.48
281.642	1.5
282.019	1.54
282.396	1.67
282.773	1.48
283.151	1.45
283.528	1.55
283.905	1.41
284.282	1.53
284.659	1.56
285.035	1.32
285.412	1.33
285.789	1.57
286.166	1.45
286.543	1.39
286.919	1.58
287.296	1.36
287.673	1.58
288.049	1.55
288.426	1.64
288.802	1.51
289.179	1.4
289.555	1.52
289.932	1.48
290.308	1.3
290.684	1.36
291.061	1.28
291.437	1.39
291.813	1.51
292.189	1.27
292.565	1.27
292.942	1.25
293.318	1.33
293.694	1.5
294.07	1.27
294.446	1.39
294.822	1.56
295.197	1.3
295.573	1.35
295.949	1.43
296.325	1.49
296.701	1.36
297.076	1.41
297.452	1.42
297.828	1.37
298.203	1.4
298.579	1.33
298.954	1.34
299.33	1.24
299.705	1.3
300.081	1.29
300.456	1.41
300.831	1.32
301.206	1.22
301.582	1.3
301.957	1.25
302.332	1.27
302.707	1.16
303.082	1.19
303.457	1.12
303.832	1.16
304.207	1.09
304.582	1.11
304.957	1.17
305.332	1.17
305.707	1.04
306.082	1.08
306.456	1.05
306.831	1.03
307.206	1.03
307.58	1
307.955	1
308.33	0.97
308.704	0.96
309.079	0.97
309.453	0.95
309.828	0.92
310.202	0.91
310.576	0.9
310.951	0.88
311.325	0.86
311.699	0.84
312.073	0.8
312.447	0.84
312.821	0.81
313.196	0.86
313.57	0.76
313.944	0.8
314.317	0.77
314.691	0.78
315.065	0.77
315.439	0.78
315.813	0.79
316.187	0.77
316.56	0.79
316.934	0.76
317.308	0.74
317.681	0.74
318.055	0.73
318.428	0.75
318.802	0.77
319.175	0.75
319.549	0.71
319.922	0.7
320.295	0.71
320.669	0.75
321.042	0.7
321.415	0.74
321.788	0.74
322.162	0.7
322.535	0.72
322.908	0.71
323.281	0.7
323.654	0.72
324.027	0.69
324.4	0.7
324.773	0.72
325.145	0.73
325.518	0.69
325.891	0.7
326.264	0.71
326.636	0.7
327.009	0.69
327.382	0.7
327.754	0.74
328.127	0.7
328.499	0.72
328.872	0.72
329.244	0.73
329.616	0.74
329.989	0.74
330.361	0.74
330.733	0.72
331.106	0.77
331.478	0.78
331.85	0.76
332.222	0.76
332.594	0.76
332.966	0.76
333.338	0.81
333.71	0.81
334.082	0.83
334.454	0.8
334.826	0.8
335.197	0.79
335.569	0.83
335.941	0.81
336.312	0.83
336.684	0.85
337.056	0.83
337.427	0.89
337.799	0.88
338.17	0.9
338.542	0.9
338.913	0.89
339.284	0.89
339.656	0.87
340.027	0.94
340.398	0.93
340.769	0.93
341.141	1.02
341.512	0.96
341.883	0.97
342.254	0.99
342.625	0.98
342.996	0.95
343.367	0.97
343.738	1
344.108	1.02
344.479	1.1
344.85	0.99
345.221	1.1
345.591	1.04
345.962	1.09
346.333	1.08
346.703	1.05
347.074	1.08
347.444	1.1
347.815	1.1
348.185	1.15
348.556	1.1
348.926	1.07
349.296	1.13
349.666	1.15
350.037	1.14
350.407	1.14
350.777	1.16
351.147	1.21
351.517	1.24
351.887	1.19
352.257	1.27
352.627	1.26
352.997	1.21
353.367	1.22
353.737	1.32
354.106	1.42
354.476	1.31
354.846	1.33
355.216	1.27
355.585	1.45
355.955	1.44
356.324	1.45
356.694	1.47
357.063	1.36
357.433	1.37
357.802	1.38
358.171	1.51
358.541	1.45
358.91	1.47
359.279	1.45
359.648	1.52
360.017	1.56
360.387	1.5
360.756	1.41
361.125	1.47
361.494	1.62
361.863	1.43
362.231	1.47
362.6	1.63
362.969	1.53
363.338	1.52
363.707	1.76
364.075	1.61
364.444	1.45
364.813	1.51
365.181	1.51
365.55	1.43
365.918	1.59
366.287	1.42
366.655	1.61
367.024	1.54
367.392	1.61
367.76	1.47
368.128	1.57
368.497	1.48
368.865	1.56
369.233	1.5
369.601	1.63
369.969	1.53
370.337	1.5
370.705	1.51
371.073	1.42
371.441	1.51
371.809	1.49
372.177	1.46
372.544	1.55
372.912	1.62
373.28	1.62
373.647	1.62
374.015	1.6
374.383	1.83
374.75	1.65
375.118	1.55
375.485	1.52
375.853	1.73
376.22	1.53
376.587	1.53
376.955	1.59
377.322	1.62
377.689	1.5
378.056	1.54
378.423	1.6
378.79	1.46
379.157	1.64
379.524	1.45
379.891	1.64
380.258	1.62
380.625	1.45
380.992	1.4
381.359	1.48
381.726	1.64
382.092	1.44
382.459	1.52
382.826	1.54
383.192	1.56
383.559	1.49
383.925	1.54
384.292	1.44
384.658	1.68
385.025	1.5
385.391	1.67
385.757	1.65
386.123	1.59
386.49	1.51
386.856	1.5
387.222	1.66
387.588	1.71
387.954	1.86
388.32	1.61
388.686	1.49
389.052	1.6
389.418	1.55
389.784	1.53
390.15	1.44
390.515	1.39
390.881	1.65
391.247	1.46
391.613	1.54
391.978	1.39
392.344	1.69
392.709	1.64
393.075	1.67
393.44	1.49
393.806	1.57
394.171	1.5
394.536	1.47
394.902	1.56
395.267	1.57
395.632	1.6
395.997	1.44
396.362	1.46
396.727	1.53
397.092	1.55
397.457	1.54
397.822	1.56
398.187	1.61
398.552	1.49
398.917	1.71
399.282	1.48
399.646	1.58
400.011	1.72
400.376	1.51
400.74	1.57
401.105	1.49
401.47	1.66
401.834	1.51
402.199	1.55
402.563	1.5
402.927	1.55
403.292	1.54
403.656	1.49
404.02	1.51
404.384	1.66
404.749	1.49
405.113	1.73
405.477	1.57
405.841	1.68
406.205	1.81
406.569	1.47
406.933	1.48
407.296	1.6
407.66	1.49
408.024	1.51
408.388	1.62
408.752	1.62
409.115	1.65
409.479	1.5
409.842	1.49
410.206	1.46
410.569	1.51
410.933	1.54
411.296	1.4
411.66	1.53
412.023	1.5
412.386	1.53
412.749	1.41
413.113	1.54
413.476	1.45
413.839	1.58
414.202	1.55
414.565	1.41
414.928	1.48
415.291	1.33
415.654	1.52
416.017	1.55
416.38	1.5
416.742	1.47
417.105	1.45
417.468	1.49
417.83	1.47
418.193	1.72
418.556	1.55
418.918	1.36
419.281	1.61
419.643	1.61
420.005	1.4
420.368	1.37
420.73	1.37
421.092	1.63
421.455	1.78
421.817	1.39
422.179	1.44
422.541	1.61
422.903	1.6
423.265	1.59
423.627	1.65
423.989	1.58
424.351	1.44
424.713	1.49
425.075	1.48
425.436	1.49
425.798	1.48
426.16	1.52
426.521	1.59
426.883	1.53
427.245	1.61
427.606	1.57
427.967	1.44
428.329	1.52
428.69	1.57
429.052	1.47
429.413	1.56
429.774	1.69
430.135	1.72
430.497	1.64
430.858	1.46
431.219	1.56
431.58	1.4
431.941	1.51
432.302	1.43
432.663	1.58
433.024	1.6
433.384	1.6
433.745	1.45
434.106	1.61
434.467	1.53
434.827	1.46
435.188	1.46
435.548	1.6
435.909	1.52
436.269	1.61
436.63	1.44
436.99	1.48
437.351	1.43
437.711	1.54
438.071	1.39
438.431	1.52
438.792	1.52
439.152	1.38
439.512	1.42
439.872	1.47
440.232	1.56
440.592	1.53
440.952	1.46
441.312	1.45
441.671	1.41
442.031	1.43
442.391	1.47
442.751	1.45
443.11	1.44
443.47	1.32
443.83	1.3
444.189	1.42
444.549	1.39
444.908	1.35
445.267	1.39
445.627	1.38
445.986	1.34
446.345	1.32
446.705	1.33
447.064	1.39
447.423	1.31
447.782	1.35
448.141	1.33
448.5	1.26
448.859	1.31
449.218	1.33
449.577	1.32
449.936	1.32
450.295	1.33
450.653	1.26
451.012	1.29
451.371	1.28
451.729	1.27
452.088	1.31
452.447	1.31
452.805	1.26
453.163	1.26
453.522	1.26
453.88	1.24
454.239	1.23
454.597	1.2
454.955	1.17
455.313	1.2
455.671	1.2
456.029	1.17
456.388	1.12
456.746	1.14
457.104	1.11
457.461	1.1
457.819	1.11
458.177	1.09
458.535	1.04
458.893	1.03
459.25	1.02
459.608	1.03
459.966	1.02
460.323	1
460.681	0.97
461.038	0.96
461.396	0.96
461.753	0.93
462.111	0.94
462.468	0.93
462.825	0.92
463.182	0.9
463.54	0.89
463.897	0.88
464.254	0.87
464.611	0.85
464.968	0.85
465.325	0.82
465.682	0.82
466.039	0.82
466.395	0.79
466.752	0.78
467.109	0.76
467.466	0.74
467.822	0.75
468.179	0.73
468.535	0.72
468.892	0.71
469.248	0.69
469.605	0.68
469.961	0.68
470.318	0.68
470.674	0.65
471.03	0.65
471.386	0.64
471.743	0.62
472.099	0.61
472.455	0.59
472.811	0.57
473.167	0.58
473.523	0.57
473.879	0.55
474.235	0.54
474.59	0.54
474.946	0.52
475.302	0.51
475.657	0.5
476.013	0.5
476.369	0.47
476.724	0.48
477.08	0.47
477.435	0.46
477.791	0.46
478.146	0.45
478.501	0.44
478.857	0.43
479.212	0.42
479.567	0.42
479.922	0.41
480.277	0.39
480.632	0.39
480.987	0.39
481.342	0.37
481.697	0.36
482.052	0.35
482.407	0.35
482.762	0.33
483.116	0.34
483.471	0.32
483.826	0.31
484.18	0.31
484.535	0.3
484.89	0.3
485.244	0.29
485.598	0.3
485.953	0.29
486.307	0.28
486.661	0.27
487.016	0.27
487.37	0.27
487.724	0.25
488.078	0.25
488.432	0.25
488.786	0.24
489.14	0.24
489.494	0.23
489.848	0.23
490.202	0.22
490.556	0.22
490.91	0.22
491.263	0.21
491.617	0.21
491.971	0.2
492.324	0.2
492.678	0.2
493.031	0.2
493.385	0.19
493.738	0.18
494.091	0.18
494.445	0.17
494.798	0.17
495.151	0.17
495.504	0.17
495.857	0.17
496.21	0.16
496.564	0.16
496.916	0.17
497.269	0.15
497.622	0.15
497.975	0.15
498.328	0.16
498.681	0.14
499.033	0.14
499.386	0.13
499.739	0.13
500.091	0.14
500.444	0.13
500.796	0.13
501.149	0.12
501.501	0.12
501.854	0.13
502.206	0.12
502.558	0.12
502.91	0.12
503.263	0.12
503.615	0.12
503.967	0.11
504.319	0.12
504.671	0.11
505.023	0.11
505.375	0.11
505.726	0.1
506.078	0.1
506.43	0.1
506.782	0.09
507.133	0.09
507.485	0.09
507.837	0.1
508.188	0.1
508.54	0.09
508.891	0.1
509.243	0.09
509.594	0.09
509.945	0.09
510.296	0.09
510.648	0.09
510.999	0.08
511.35	0.09
511.701	0.08
512.052	0.09
512.403	0.09
512.754	0.08
513.105	0.07
513.456	0.07
513.807	0.08
514.157	0.08
514.508	0.07
514.859	0.07
515.209	0.07
515.56	0.07
515.91	0.07
516.261	0.08
516.611	0.06
516.962	0.07
517.312	0.07
517.662	0.07
518.013	0.07
518.363	0.07
518.713	0.07
519.063	0.06
519.413	0.07
519.763	0.06
520.113	0.06
520.463	0.07
520.813	0.08
521.163	0.07
521.512	0.07
521.862	0.07
522.212	0.07
522.562	0.07
522.911	0.06
523.261	0.06
523.61	0.06
523.96	0.07
524.309	0.07
524.658	0.06
525.008	0.06
525.357	0.06
525.706	0.07
526.056	0.06
526.405	0.06
526.754	0.06
527.103	0.06
527.452	0.06
527.801	0.07
528.15	0.07
528.499	0.07
528.847	0.06
529.196	0.07
529.545	0.06
529.893	0.07
530.242	0.07
530.591	0.07
530.939	0.08
531.288	0.07
531.636	0.07
531.985	0.08
532.333	0.06
532.681	0.07
533.029	0.07
533.378	0.06
533.726	0.07
534.074	0.07
534.422	0.06
534.77	0.07
535.118	0.06
535.466	0.06
535.814	0.06
536.162	0.07
536.509	0.07
536.857	0.06
537.205	0.07
537.552	0.06
537.9	0.06
538.248	0.05
538.595	0.07
538.943	0.06
539.29	0.07
539.637	0.06
539.985	0.06
540.332	0.05
540.679	0.06
541.026	0.05
541.373	0.06
541.721	0.05
542.068	0.05
542.415	0.05
542.762	0.05
543.108	0.05
543.455	0.04
543.802	0.05
544.149	0.05
544.496	0.05
544.842	0.04
545.189	0.05
545.535	0.05
545.882	0.05
546.228	0.05
546.575	0.05
546.921	0.04
547.267	0.05
547.614	0.05
547.96	0.05
548.306	0.05
548.652	0.04
548.998	0.06
549.344	0.05
549.69	0.05
550.036	0.06
550.382	0.05
550.728	0.05
551.074	0.06
551.42	0.06
551.765	0.05
552.111	0.06
552.457	0.07
552.802	0.05
553.148	0.06
553.493	0.05
553.839	0.06
554.184	0.06
554.529	0.05
554.875	0.06
555.22	0.06
555.565	0.06
555.91	0.06
556.255	0.06
556.6	0.06
556.945	0.06
557.29	0.06
557.635	0.06
557.98	0.06
558.325	0.06
558.67	0.06
559.014	0.06
559.359	0.06
559.704	0.05
560.048	0.04
560.393	0.05
560.737	0.05
561.082	0.05
561.426	0.04
561.77	0.04
562.115	0.04
562.459	0.05
562.803	0.05
563.147	0.05
563.491	0.05
563.835	0.06
564.179	0.05
564.523	0.05
564.867	0.04
565.211	0.05
565.555	0.05
565.899	0.05
566.242	0.04
566.586	0.04
566.93	0.05
567.273	0.06
567.617	0.05
567.96	0.06
568.304	0.06
568.647	0.04
568.99	0.06
569.334	0.06
569.677	0.05
570.02	0.06
570.363	0.06
570.706	0.05
571.049	0.06
571.392	0.06
571.735	0.05
572.078	0.05
572.421	0.06
572.764	0.05
573.106	0.05
573.449	0.06
573.792	0.06
574.134	0.05
574.477	0.06
574.819	0.05
575.162	0.05
575.504	0.05
575.847	0.05
576.189	0.05
576.531	0.06
576.873	0.05
577.215	0.05
577.558	0.05
577.9	0.05
578.242	0.05
578.584	0.05
578.926	0.05
579.267	0.05
579.609	0.05
579.951	0.04
580.293	0.05
580.634	0.05
580.976	0.05
581.318	0.05
581.659	0.04
582.001	0.04
582.342	0.04
582.683	0.05
583.025	0.04
583.366	0.04
583.707	0.05
584.049	0.05
584.39	0.05
584.731	0.04
585.072	0.05
585.413	0.06
585.754	0.05
586.095	0.05
586.435	0.05
586.776	0.05
587.117	0.05
587.458	0.05
587.798	0.05
588.139	0.04
588.48	0.04
588.82	0.04
589.161	0.05
589.501	0.04
589.841	0.04
590.182	0.04
590.522	0.05
590.862	0.05
591.202	0.05
591.542	0.04
591.882	0.05
592.222	0.04
592.562	0.05
592.902	0.04
593.242	0.04
593.582	0.05
593.922	0.05
594.261	0.04
594.601	0.05
594.941	0.05
595.28	0.05
595.62	0.05
595.959	0.05
596.299	0.04
596.638	0.05
596.977	0.05
597.317	0.05
597.656	0.04
597.995	0.04
598.334	0.05
598.673	0.04
599.012	0.04
599.351	0.04
599.69	0.04
600.029	0.04
600.368	0.05
600.707	0.05
601.046	0.04
601.384	0.04
601.723	0.04
602.061	0.05
602.4	0.04
602.738	0.05
603.077	0.05
603.415	0.04
603.754	0.04
604.092	0.05
604.43	0.04
604.768	0.05
605.107	0.05
605.445	0.04
605.783	0.05
606.121	0.04
606.459	0.04
606.796	0.04
607.134	0.04
607.472	0.04
607.81	0.05
608.148	0.04
608.485	0.04
608.823	0.05
609.16	0.05
609.498	0.05
609.835	0.04
610.173	0.05
610.51	0.05
610.847	0.05
611.185	0.05
611.522	0.05
611.859	0.05
612.196	0.05
612.533	0.06
612.87	0.06
613.207	0.06
613.544	0.05
613.881	0.06
614.217	0.06
614.554	0.05
614.891	0.06
615.228	0.06
615.564	0.06
615.901	0.06
616.237	0.06
616.574	0.06
616.91	0.06
617.246	0.06
617.583	0.06
617.919	0.06
618.255	0.06
618.591	0.06
618.927	0.06
619.263	0.07
619.599	0.06
619.935	0.06
620.271	0.06
620.607	0.06
620.943	0.06
621.279	0.06
621.614	0.05
621.95	0.06
622.286	0.05
622.621	0.05
622.957	0.05
623.292	0.05
623.627	0.05
623.963	0.04
624.298	0.05
624.633	0.05
624.968	0.05
625.304	0.04
625.639	0.04
625.974	0.04
626.309	0.04
626.644	0.05
626.979	0.06
627.313	0.05
627.648	0.05
627.983	0.05
628.318	0.05
628.652	0.04
628.987	0.05
629.321	0.05
629.656	0.04
629.99	0.05
630.325	0.05
630.659	0.05
630.993	0.04
631.327	0.05
631.662	0.04
631.996	0.04
632.33	0.04
632.664	0.05
632.998	0.04
633.332	0.04
633.666	0.04
633.999	0.05
634.333	0.04
634.667	0.04
635.001	0.04
635.334	0.04
635.668	0.04
636.001	0.03
636.335	0.04
636.668	0.03
637.001	0.03
637.335	0.04
637.668	0.04
638.001	0.03
638.334	0.04
638.668	0.04
639.001	0.04
639.334	0.03
639.667	0.04
639.999	0.04
640.332	0.04
640.665	0.04
640.998	0.04
641.331	0.04
641.663	0.04
641.996	0.04
642.328	0.04
642.661	0.04
642.993	0.04
643.326	0.05
643.658	0.04
643.99	0.04
644.323	0.04
644.655	0.05
644.987	0.04
645.319	0.05
645.651	0.05
645.983	0.05
646.315	0.04
646.647	0.05
646.979	0.05
647.31	0.05
647.642	0.05
647.974	0.05
648.305	0.06
648.637	0.05
648.968	0.05
649.3	0.05
649.631	0.05
649.963	0.05
650.294	0.05
650.625	0.05
650.957	0.05
651.288	0.05
651.619	0.05
651.95	0.05
652.281	0.05
652.612	0.05
652.943	0.05
653.274	0.05
653.604	0.05
653.935	0.04
654.266	0.05
654.596	0.04
654.927	0.05
655.258	0.05
655.588	0.05
655.918	0.05
656.249	0.03
656.579	0.05
656.909	0.05
657.24	0.04
657.57	0.05
657.9	0.06
658.23	0.05
658.56	0.06
658.89	0.05
659.22	0.04
659.55	0.05
659.88	0.05
660.209	0.05
660.539	0.07
660.869	0.06
661.198	0.05
661.528	0.05
661.857	0.05
662.187	0.06
662.516	0.06
662.846	0.05
663.175	0.05
663.504	0.05
663.833	0.05
664.163	0.05
664.492	0.04
664.821	0.05
665.15	0.05
665.479	0.05
665.807	0.05
666.136	0.05
666.465	0.05
666.794	0.05
667.122	0.04
667.451	0.04
667.78	0.05
668.108	0.04
668.437	0.04
668.765	0.05
669.093	0.05
669.422	0.04
669.75	0.05
670.078	0.05
670.406	0.05
670.734	0.05
671.062	0.05
671.39	0.05
671.718	0.05
672.046	0.06
672.374	0.05
672.702	0.05
673.029	0.05
673.357	0.05
673.685	0.06
674.012	0.05
674.34	0.05
674.667	0.05
674.995	0.05
675.322	0.05
675.649	0.05
675.977	0.05
676.304	0.05
676.631	0.04
676.958	0.04
677.285	0.04
677.612	0.05
677.939	0.04
678.266	0.05
678.593	0.04
678.92	0.04
679.246	0.04
679.573	0.04
679.9	0.03
680.226	0.04
680.553	0.03
680.879	0.04
681.206	0.04
681.532	0.04
681.858	0.04
682.184	0.04
682.511	0.04
682.837	0.03
683.163	0.04
683.489	0.04
683.815	0.04
684.141	0.04
684.467	0.04
684.793	0.03
685.118	0.04
685.444	0.04
685.77	0.04
686.095	0.04
686.421	0.04
686.746	0.04
687.072	0.05
687.397	0.04
687.723	0.04
688.048	0.05
688.373	0.04
688.698	0.04
689.023	0.04
689.349	0.05
689.674	0.04
689.999	0.04
690.323	0.03
690.648	0.04
690.973	0.02
691.298	0.03
691.623	0.03
691.947	0.04
692.272	0.03
692.596	0.03
692.921	0.03
693.245	0.03
693.57	0.03
693.894	0.04
694.218	0.03
694.543	0.04
694.867	0.04
695.191	0.03
695.515	0.04
695.839	0.03
696.163	0.03
696.487	0.03
696.811	0.03
697.135	0.04
697.458	0.03
697.782	0.03
698.106	0.04
698.429	0.04
698.753	0.03
699.076	0.04
699.4	0.04
699.723	0.03
700.046	0.03
700.37	0.04
700.693	0.04
701.016	0.03
701.339	0.04
701.662	0.03
701.985	0.04
702.308	0.04
702.631	0.04
702.954	0.04
703.277	0.04
703.599	0.04
703.922	0.04
704.245	0.04
704.567	0.03
704.89	0.04
705.212	0.04
705.535	0.03
705.857	0.04
706.179	0.03
706.502	0.04
706.824	0.03
707.146	0.03
707.468	0.03
707.79	0.03
708.112	0.04
708.434	0.04
708.756	0.03
709.078	0.03
709.399	0.03
709.721	0.03
710.043	0.04
710.364	0.03
710.686	0.04
711.007	0.03
711.329	0.04
711.65	0.04
711.972	0.04
712.293	0.04
712.614	0.04
712.935	0.04
713.256	0.04
713.577	0.03
713.898	0.03
714.219	0.03
714.54	0.03
714.861	0.02
715.182	0.03
715.503	0.03
715.823	0.03
716.144	0.03
716.464	0.03
716.785	0.03
717.105	0.03
717.426	0.03
717.746	0.03
718.066	0.03
718.387	0.03
718.707	0.03
719.027	0.03
719.347	0.02
719.667	0.02
719.987	0.02
720.307	0.02
720.627	0.03
720.947	0.02
721.266	0.02
721.586	0.01
721.906	0.02
722.225	0.02
722.545	0.01
722.864	0.01
723.184	0.02
723.503	0.02
