Data from 12-12-AQDScycling_Absorbance__401__00401.txt Node

Date: Tue Dec 12 12:36:59 EST 2023
User: kyuminlee
Spectrometer: FLMS00943
Trigger mode: 0
Integration Time (sec): 1.000000E-1
Scans to average: 1
Electric dark correction enabled: true
Nonlinearity correction enabled: false
Boxcar width: 0
XAxis mode: Wavelengths
Number of Pixels in Spectrum: 2048
>>>>>Begin Spectral Data<<<<<
179.651	0.57
180.037	0.57
180.424	0.57
180.81	-0.48
181.197	0.09
181.583	-0
181.97	0.23
182.356	-0
182.743	-1.28
183.129	0.62
183.515	-0
183.901	-2.44
184.288	0.27
184.674	-0
185.06	-0
185.446	-0
185.832	-0
186.218	1.11
186.604	-0
186.99	-0
187.376	-0
187.762	-0
188.148	0.14
188.534	0.09
188.92	0.05
189.305	0.17
189.691	0.14
190.077	0.08
190.463	0.07
190.848	0.34
191.234	0.03
191.619	0.06
192.005	0.08
192.391	0.14
192.776	0.14
193.161	0.05
193.547	0.2
193.932	-0
194.318	-0.04
194.703	0.13
195.088	0.02
195.473	0.13
195.859	0.13
196.244	0.14
196.629	0.06
197.014	0.17
197.399	0.05
197.784	0.1
198.169	0.07
198.554	0.32
198.939	0.19
199.324	0.1
199.709	0.03
200.094	0.15
200.478	0.04
200.863	0.13
201.248	0.16
201.633	0.14
202.017	0.08
202.402	0.21
202.787	0.07
203.171	0.16
203.556	0.1
203.94	0.15
204.325	0.18
204.709	0.17
205.093	0.15
205.478	0.06
205.862	0.07
206.246	0.05
206.631	-0.01
207.015	0.1
207.399	0.22
207.783	0.08
208.167	0.2
208.551	0.23
208.935	0.2
209.319	0.12
209.703	0.13
210.087	0.25
210.471	0.15
210.855	0.1
211.239	0.22
211.623	0.17
212.007	0.15
212.39	0.43
212.774	0.22
213.158	0.04
213.541	0.34
213.925	0.24
214.309	0.25
214.692	0.3
215.076	0.13
215.459	0.23
215.842	0.19
216.226	0.27
216.609	0.27
216.993	0.19
217.376	0.44
217.759	0.29
218.142	0.36
218.525	0.49
218.909	0.2
219.292	0.36
219.675	0.38
220.058	0.34
220.441	0.49
220.824	0.52
221.207	0.51
221.59	0.51
221.973	0.5
222.355	0.61
222.738	0.65
223.121	0.56
223.504	0.56
223.886	0.64
224.269	0.59
224.652	0.63
225.034	0.72
225.417	0.77
225.799	0.71
226.182	0.79
226.564	0.74
226.947	0.75
227.329	0.73
227.711	1.09
228.094	0.84
228.476	0.87
228.858	0.88
229.24	0.82
229.623	0.8
230.005	0.87
230.387	0.89
230.769	0.82
231.151	0.85
231.533	0.99
231.915	0.98
232.297	1
232.679	0.92
233.061	0.83
233.442	1.14
233.824	1.01
234.206	1.3
234.588	1.1
234.969	1
235.351	1.08
235.733	1.07
236.114	1.08
236.496	1.02
236.877	1.05
237.259	1.07
237.64	1.1
238.022	1
238.403	0.98
238.784	0.96
239.165	0.94
239.547	1.07
239.928	1.17
240.309	1.01
240.69	1.13
241.071	1.15
241.452	1.15
241.834	1.04
242.215	1.16
242.595	1.04
242.976	1.32
243.357	1.15
243.738	1.06
244.119	1.2
244.5	1.03
244.881	1.24
245.261	1.15
245.642	1.23
246.023	1.16
246.403	1.17
246.784	1.1
247.164	1.25
247.545	1.26
247.925	1.22
248.306	1.17
248.686	1.37
249.067	1.3
249.447	1.34
249.827	1.52
250.207	1.34
250.588	1.21
250.968	1.49
251.348	1.23
251.728	1.47
252.108	1.44
252.488	1.33
252.868	1.33
253.248	1.27
253.628	1.48
254.008	1.59
254.388	1.28
254.768	1.34
255.147	1.39
255.527	1.36
255.907	1.32
256.287	1.29
256.666	1.44
257.046	1.49
257.425	1.39
257.805	1.38
258.184	1.33
258.564	1.3
258.943	1.4
259.323	1.48
259.702	1.4
260.081	1.44
260.461	1.5
260.84	1.39
261.219	1.63
261.598	1.49
261.977	1.62
262.356	1.57
262.736	1.43
263.115	1.6
263.494	1.42
263.873	1.44
264.251	1.53
264.63	1.52
265.009	1.37
265.388	1.48
265.767	1.4
266.145	1.41
266.524	1.4
266.903	1.3
267.281	1.36
267.66	1.41
268.039	1.66
268.417	1.45
268.796	1.43
269.174	1.37
269.552	1.34
269.931	1.51
270.309	1.33
270.687	1.59
271.066	1.47
271.444	1.39
271.822	1.41
272.2	1.32
272.578	1.39
272.956	1.46
273.334	1.48
273.712	1.49
274.09	1.4
274.468	1.47
274.846	1.39
275.224	1.37
275.602	1.5
275.98	1.77
276.357	1.34
276.735	1.36
277.113	1.45
277.49	1.23
277.868	1.37
278.246	1.4
278.623	1.31
279.001	1.36
279.378	1.34
279.756	1.39
280.133	1.64
280.51	1.43
280.888	1.48
281.265	1.37
281.642	1.46
282.019	1.54
282.396	1.4
282.773	1.41
283.151	1.45
283.528	1.4
283.905	1.32
284.282	1.49
284.659	1.5
285.035	1.36
285.412	1.45
285.789	1.49
286.166	1.41
286.543	1.47
286.919	1.58
287.296	1.35
287.673	1.48
288.049	1.53
288.426	1.54
288.802	1.42
289.179	1.43
289.555	1.72
289.932	1.39
290.308	1.37
290.684	1.39
291.061	1.4
291.437	1.53
291.813	1.38
292.189	1.28
292.565	1.42
292.942	1.39
293.318	1.43
293.694	1.39
294.07	1.3
294.446	1.34
294.822	1.39
295.197	1.49
295.573	1.52
295.949	1.41
296.325	1.52
296.701	1.6
297.076	1.67
297.452	1.47
297.828	1.44
298.203	1.53
298.579	1.43
298.954	1.38
299.33	1.46
299.705	1.45
300.081	1.47
300.456	1.38
300.831	1.39
301.206	1.28
301.582	1.44
301.957	1.42
302.332	1.52
302.707	1.31
303.082	1.32
303.457	1.36
303.832	1.31
304.207	1.39
304.582	1.27
304.957	1.3
305.332	1.31
305.707	1.25
306.082	1.29
306.456	1.36
306.831	1.22
307.206	1.29
307.58	1.27
307.955	1.25
308.33	1.31
308.704	1.24
309.079	1.27
309.453	1.36
309.828	1.24
310.202	1.29
310.576	1.21
310.951	1.26
311.325	1.29
311.699	1.25
312.073	1.22
312.447	1.22
312.821	1.13
313.196	1.25
313.57	1.14
313.944	1.16
314.317	1.15
314.691	1.31
315.065	1.25
315.439	1.39
315.813	1.15
316.187	1.15
316.56	1.24
316.934	1.2
317.308	1.18
317.681	1.25
318.055	1.18
318.428	1.25
318.802	1.2
319.175	1.27
319.549	1.19
319.922	1.2
320.295	1.16
320.669	1.27
321.042	1.23
321.415	1.27
321.788	1.17
322.162	1.18
322.535	1.17
322.908	1.24
323.281	1.18
323.654	1.23
324.027	1.19
324.4	1.26
324.773	1.24
325.145	1.25
325.518	1.2
325.891	1.23
326.264	1.31
326.636	1.18
327.009	1.18
327.382	1.21
327.754	1.36
328.127	1.22
328.499	1.27
328.872	1.31
329.244	1.28
329.616	1.15
329.989	1.28
330.361	1.2
330.733	1.18
331.106	1.21
331.478	1.34
331.85	1.23
332.222	1.22
332.594	1.21
332.966	1.32
333.338	1.32
333.71	1.29
334.082	1.41
334.454	1.2
334.826	1.26
335.197	1.21
335.569	1.3
335.941	1.25
336.312	1.25
336.684	1.3
337.056	1.27
337.427	1.37
337.799	1.25
338.17	1.33
338.542	1.28
338.913	1.31
339.284	1.41
339.656	1.3
340.027	1.3
340.398	1.32
340.769	1.4
341.141	1.39
341.512	1.28
341.883	1.37
342.254	1.34
342.625	1.32
342.996	1.3
343.367	1.31
343.738	1.28
344.108	1.23
344.479	1.36
344.85	1.27
345.221	1.37
345.591	1.2
345.962	1.28
346.333	1.32
346.703	1.22
347.074	1.23
347.444	1.18
347.815	1.28
348.185	1.29
348.556	1.25
348.926	1.29
349.296	1.3
349.666	1.27
350.037	1.26
350.407	1.22
350.777	1.29
351.147	1.32
351.517	1.35
351.887	1.39
352.257	1.36
352.627	1.27
352.997	1.3
353.367	1.38
353.737	1.37
354.106	1.43
354.476	1.29
354.846	1.39
355.216	1.41
355.585	1.41
355.955	1.37
356.324	1.38
356.694	1.31
357.063	1.39
357.433	1.43
357.802	1.33
358.171	1.43
358.541	1.38
358.91	1.48
359.279	1.51
359.648	1.41
360.017	1.45
360.387	1.49
360.756	1.35
361.125	1.45
361.494	1.53
361.863	1.32
362.231	1.43
362.6	1.49
362.969	1.6
363.338	1.31
363.707	1.56
364.075	1.61
364.444	1.35
364.813	1.43
365.181	1.38
365.55	1.42
365.918	1.53
366.287	1.51
366.655	1.54
367.024	1.52
367.392	1.52
367.76	1.44
368.128	1.51
368.497	1.48
368.865	1.46
369.233	1.49
369.601	1.45
369.969	1.53
370.337	1.42
370.705	1.41
371.073	1.48
371.441	1.38
371.809	1.5
372.177	1.45
372.544	1.7
372.912	1.68
373.28	1.43
373.647	1.59
374.015	1.56
374.383	1.66
374.75	1.68
375.118	1.62
375.485	1.53
375.853	1.59
376.22	1.62
376.587	1.51
376.955	1.6
377.322	1.61
377.689	1.46
378.056	1.46
378.423	1.56
378.79	1.46
379.157	1.61
379.524	1.62
379.891	1.49
380.258	1.59
380.625	1.47
380.992	1.51
381.359	1.44
381.726	1.63
382.092	1.55
382.459	1.49
382.826	1.61
383.192	1.49
383.559	1.48
383.925	1.51
384.292	1.42
384.658	1.8
385.025	1.65
385.391	1.69
385.757	1.65
386.123	1.6
386.49	1.56
386.856	1.75
387.222	1.59
387.588	1.41
387.954	1.66
388.32	1.55
388.686	1.47
389.052	1.49
389.418	1.49
389.784	1.54
390.15	1.7
390.515	1.42
390.881	1.67
391.247	1.53
391.613	1.55
391.978	1.48
392.344	1.65
392.709	1.61
393.075	1.61
393.44	1.74
393.806	1.56
394.171	1.44
394.536	1.55
394.902	1.52
395.267	1.45
395.632	1.6
395.997	1.53
396.362	1.57
396.727	1.55
397.092	1.47
397.457	1.61
397.822	1.49
398.187	1.5
398.552	1.52
398.917	1.62
399.282	1.47
399.646	1.51
400.011	1.67
400.376	1.56
400.74	1.47
401.105	1.47
401.47	1.71
401.834	1.57
402.199	1.54
402.563	1.58
402.927	1.42
403.292	1.62
403.656	1.6
404.02	1.53
404.384	1.56
404.749	1.58
405.113	1.54
405.477	1.69
405.841	1.64
406.205	1.56
406.569	1.59
406.933	1.51
407.296	1.41
407.66	1.41
408.024	1.38
408.388	1.65
408.752	1.49
409.115	1.61
409.479	1.56
409.842	1.46
410.206	1.57
410.569	1.56
410.933	1.64
411.296	1.4
411.66	1.51
412.023	1.39
412.386	1.47
412.749	1.49
413.113	1.62
413.476	1.41
413.839	1.39
414.202	1.44
414.565	1.36
414.928	1.4
415.291	1.33
415.654	1.31
416.017	1.53
416.38	1.33
416.742	1.47
417.105	1.41
417.468	1.43
417.83	1.59
418.193	1.53
418.556	1.43
418.918	1.42
419.281	1.42
419.643	1.63
420.005	1.46
420.368	1.36
420.73	1.33
421.092	1.51
421.455	1.4
421.817	1.38
422.179	1.38
422.541	1.42
422.903	1.53
423.265	1.5
423.627	1.49
423.989	1.34
424.351	1.43
424.713	1.42
425.075	1.38
425.436	1.42
425.798	1.43
426.16	1.38
426.521	1.37
426.883	1.39
427.245	1.36
427.606	1.4
427.967	1.29
428.329	1.39
428.69	1.53
429.052	1.35
429.413	1.34
429.774	1.41
430.135	1.41
430.497	1.35
430.858	1.38
431.219	1.52
431.58	1.28
431.941	1.33
432.302	1.33
432.663	1.43
433.024	1.45
433.384	1.37
433.745	1.33
434.106	1.4
434.467	1.32
434.827	1.28
435.188	1.31
435.548	1.53
435.909	1.27
436.269	1.37
436.63	1.29
436.99	1.32
437.351	1.27
437.711	1.31
438.071	1.25
438.431	1.27
438.792	1.29
439.152	1.31
439.512	1.29
439.872	1.26
440.232	1.31
440.592	1.23
440.952	1.3
441.312	1.21
441.671	1.26
442.031	1.28
442.391	1.24
442.751	1.24
443.11	1.25
443.47	1.18
443.83	1.23
444.189	1.18
444.549	1.21
444.908	1.16
445.267	1.17
445.627	1.18
445.986	1.14
446.345	1.14
446.705	1.18
447.064	1.15
447.423	1.13
447.782	1.15
448.141	1.13
448.5	1.12
448.859	1.07
449.218	1.09
449.577	1.1
449.936	1.06
450.295	1.1
450.653	1.09
451.012	1.06
451.371	1.03
451.729	1.05
452.088	1.05
452.447	1.07
452.805	1.05
453.163	1.05
453.522	1.03
453.88	0.98
454.239	1.03
454.597	0.97
454.955	0.95
455.313	0.97
455.671	0.98
456.029	0.96
456.388	0.93
456.746	0.93
457.104	0.94
457.461	0.92
457.819	0.92
458.177	0.89
458.535	0.89
458.893	0.86
459.25	0.86
459.608	0.85
459.966	0.83
460.323	0.84
460.681	0.81
461.038	0.81
461.396	0.79
461.753	0.78
462.111	0.78
462.468	0.76
462.825	0.76
463.182	0.74
463.54	0.73
463.897	0.75
464.254	0.73
464.611	0.71
464.968	0.71
465.325	0.7
465.682	0.68
466.039	0.67
466.395	0.66
466.752	0.66
467.109	0.65
467.466	0.63
467.822	0.63
468.179	0.61
468.535	0.61
468.892	0.6
469.248	0.59
469.605	0.59
469.961	0.56
470.318	0.59
470.674	0.57
471.03	0.55
471.386	0.56
471.743	0.53
472.099	0.52
472.455	0.53
472.811	0.52
473.167	0.5
473.523	0.49
473.879	0.49
474.235	0.48
474.59	0.47
474.946	0.46
475.302	0.46
475.657	0.45
476.013	0.44
476.369	0.43
476.724	0.43
477.08	0.43
477.435	0.42
477.791	0.41
478.146	0.41
478.501	0.4
478.857	0.4
479.212	0.39
479.567	0.39
479.922	0.38
480.277	0.37
480.632	0.37
480.987	0.36
481.342	0.35
481.697	0.34
482.052	0.34
482.407	0.34
482.762	0.33
483.116	0.33
483.471	0.32
483.826	0.31
484.18	0.31
484.535	0.3
484.89	0.3
485.244	0.3
485.598	0.3
485.953	0.3
486.307	0.29
486.661	0.29
487.016	0.28
487.37	0.28
487.724	0.28
488.078	0.27
488.432	0.27
488.786	0.27
489.14	0.26
489.494	0.25
489.848	0.25
490.202	0.25
490.556	0.24
490.91	0.24
491.263	0.24
491.617	0.24
491.971	0.23
492.324	0.23
492.678	0.23
493.031	0.23
493.385	0.22
493.738	0.22
494.091	0.22
494.445	0.22
494.798	0.22
495.151	0.21
495.504	0.2
495.857	0.21
496.21	0.21
496.564	0.2
496.916	0.21
497.269	0.19
497.622	0.2
497.975	0.2
498.328	0.19
498.681	0.2
499.033	0.19
499.386	0.19
499.739	0.19
500.091	0.18
500.444	0.18
500.796	0.18
501.149	0.18
501.501	0.18
501.854	0.18
502.206	0.18
502.558	0.18
502.91	0.17
503.263	0.17
503.615	0.17
503.967	0.17
504.319	0.17
504.671	0.17
505.023	0.16
505.375	0.17
505.726	0.17
506.078	0.16
506.43	0.16
506.782	0.16
507.133	0.16
507.485	0.16
507.837	0.17
508.188	0.17
508.54	0.16
508.891	0.16
509.243	0.16
509.594	0.16
509.945	0.16
510.296	0.15
510.648	0.16
510.999	0.16
511.35	0.15
511.701	0.16
512.052	0.16
512.403	0.16
512.754	0.15
513.105	0.15
513.456	0.15
513.807	0.15
514.157	0.16
514.508	0.15
514.859	0.15
515.209	0.15
515.56	0.16
515.91	0.15
516.261	0.15
516.611	0.15
516.962	0.15
517.312	0.15
517.662	0.15
518.013	0.16
518.363	0.15
518.713	0.15
519.063	0.15
519.413	0.15
519.763	0.15
520.113	0.15
520.463	0.16
520.813	0.16
521.163	0.15
521.512	0.16
521.862	0.15
522.212	0.15
522.562	0.15
522.911	0.15
523.261	0.15
523.61	0.15
523.96	0.15
524.309	0.15
524.658	0.15
525.008	0.15
525.357	0.15
525.706	0.16
526.056	0.15
526.405	0.15
526.754	0.15
527.103	0.15
527.452	0.15
527.801	0.15
528.15	0.15
528.499	0.15
528.847	0.15
529.196	0.16
529.545	0.16
529.893	0.16
530.242	0.15
530.591	0.15
530.939	0.15
531.288	0.15
531.636	0.16
531.985	0.16
532.333	0.15
532.681	0.16
533.029	0.16
533.378	0.16
533.726	0.15
534.074	0.16
534.422	0.15
534.77	0.15
535.118	0.16
535.466	0.16
535.814	0.16
536.162	0.16
536.509	0.16
536.857	0.16
537.205	0.17
537.552	0.16
537.9	0.15
538.248	0.16
538.595	0.16
538.943	0.15
539.29	0.16
539.637	0.16
539.985	0.16
540.332	0.15
540.679	0.16
541.026	0.15
541.373	0.15
541.721	0.16
542.068	0.15
542.415	0.15
542.762	0.15
543.108	0.15
543.455	0.15
543.802	0.15
544.149	0.14
544.496	0.15
544.842	0.14
545.189	0.14
545.535	0.14
545.882	0.15
546.228	0.14
546.575	0.14
546.921	0.15
547.267	0.15
547.614	0.14
547.96	0.15
548.306	0.15
548.652	0.15
548.998	0.15
549.344	0.16
549.69	0.15
550.036	0.15
550.382	0.14
550.728	0.15
551.074	0.15
551.42	0.16
551.765	0.16
552.111	0.16
552.457	0.16
552.802	0.16
553.148	0.15
553.493	0.15
553.839	0.15
554.184	0.16
554.529	0.16
554.875	0.16
555.22	0.16
555.565	0.15
555.91	0.16
556.255	0.16
556.6	0.16
556.945	0.15
557.29	0.16
557.635	0.17
557.98	0.16
558.325	0.16
558.67	0.16
559.014	0.17
559.359	0.16
559.704	0.16
560.048	0.15
560.393	0.16
560.737	0.15
561.082	0.15
561.426	0.15
561.77	0.15
562.115	0.15
562.459	0.16
562.803	0.16
563.147	0.16
563.491	0.16
563.835	0.15
564.179	0.16
564.523	0.15
564.867	0.15
565.211	0.15
565.555	0.16
565.899	0.16
566.242	0.16
566.586	0.15
566.93	0.15
567.273	0.16
567.617	0.15
567.96	0.16
568.304	0.16
568.647	0.16
568.99	0.16
569.334	0.17
569.677	0.16
570.02	0.16
570.363	0.16
570.706	0.16
571.049	0.16
571.392	0.17
571.735	0.15
572.078	0.15
572.421	0.17
572.764	0.16
573.106	0.16
573.449	0.16
573.792	0.15
574.134	0.16
574.477	0.16
574.819	0.15
575.162	0.15
575.504	0.15
575.847	0.16
576.189	0.16
576.531	0.16
576.873	0.15
577.215	0.15
577.558	0.16
577.9	0.15
578.242	0.15
578.584	0.16
578.926	0.15
579.267	0.16
579.609	0.16
579.951	0.16
580.293	0.15
580.634	0.16
580.976	0.16
581.318	0.16
581.659	0.16
582.001	0.16
582.342	0.15
582.683	0.16
583.025	0.15
583.366	0.15
583.707	0.15
584.049	0.16
584.39	0.16
584.731	0.15
585.072	0.15
585.413	0.16
585.754	0.16
586.095	0.15
586.435	0.16
586.776	0.16
587.117	0.15
587.458	0.15
587.798	0.16
588.139	0.16
588.48	0.15
588.82	0.16
589.161	0.15
589.501	0.15
589.841	0.15
590.182	0.15
590.522	0.15
590.862	0.15
591.202	0.16
591.542	0.15
591.882	0.15
592.222	0.15
592.562	0.15
592.902	0.15
593.242	0.15
593.582	0.15
593.922	0.15
594.261	0.15
594.601	0.15
594.941	0.15
595.28	0.15
595.62	0.15
595.959	0.15
596.299	0.15
596.638	0.16
596.977	0.16
597.317	0.16
597.656	0.16
597.995	0.15
598.334	0.16
598.673	0.15
599.012	0.15
599.351	0.16
599.69	0.16
600.029	0.15
600.368	0.16
600.707	0.16
601.046	0.15
601.384	0.16
601.723	0.15
602.061	0.15
602.4	0.15
602.738	0.15
603.077	0.16
603.415	0.15
603.754	0.15
604.092	0.15
604.43	0.16
604.768	0.15
605.107	0.15
605.445	0.15
605.783	0.14
606.121	0.15
606.459	0.15
606.796	0.15
607.134	0.15
607.472	0.14
607.81	0.16
608.148	0.14
608.485	0.16
608.823	0.15
609.16	0.15
609.498	0.16
609.835	0.15
610.173	0.15
610.51	0.15
610.847	0.15
611.185	0.14
611.522	0.15
611.859	0.16
612.196	0.16
612.533	0.16
612.87	0.16
613.207	0.17
613.544	0.16
613.881	0.16
614.217	0.16
614.554	0.16
614.891	0.16
615.228	0.16
615.564	0.16
615.901	0.16
616.237	0.16
616.574	0.15
616.91	0.16
617.246	0.16
617.583	0.16
617.919	0.16
618.255	0.16
618.591	0.16
618.927	0.16
619.263	0.16
619.599	0.16
619.935	0.17
620.271	0.16
620.607	0.16
620.943	0.15
621.279	0.15
621.614	0.15
621.95	0.15
622.286	0.15
622.621	0.15
622.957	0.15
623.292	0.15
623.627	0.15
623.963	0.14
624.298	0.14
624.633	0.14
624.968	0.14
625.304	0.15
625.639	0.15
625.974	0.14
626.309	0.14
626.644	0.14
626.979	0.15
627.313	0.14
627.648	0.14
627.983	0.14
628.318	0.14
628.652	0.14
628.987	0.14
629.321	0.14
629.656	0.13
629.99	0.13
630.325	0.13
630.659	0.14
630.993	0.13
631.327	0.14
631.662	0.13
631.996	0.14
632.33	0.14
632.664	0.14
632.998	0.13
633.332	0.13
633.666	0.14
633.999	0.13
634.333	0.13
634.667	0.13
635.001	0.13
635.334	0.13
635.668	0.13
636.001	0.13
636.335	0.13
636.668	0.13
637.001	0.13
637.335	0.13
637.668	0.13
638.001	0.12
638.334	0.13
638.668	0.12
639.001	0.13
639.334	0.12
639.667	0.12
639.999	0.12
640.332	0.13
640.665	0.12
640.998	0.13
641.331	0.13
641.663	0.12
641.996	0.12
642.328	0.13
642.661	0.12
642.993	0.12
643.326	0.12
643.658	0.12
643.99	0.11
644.323	0.12
644.655	0.12
644.987	0.12
645.319	0.13
645.651	0.12
645.983	0.12
646.315	0.12
646.647	0.12
646.979	0.13
647.31	0.12
647.642	0.13
647.974	0.12
648.305	0.13
648.637	0.13
648.968	0.13
649.3	0.13
649.631	0.13
649.963	0.13
650.294	0.13
650.625	0.12
650.957	0.13
651.288	0.12
651.619	0.13
651.95	0.13
652.281	0.13
652.612	0.13
652.943	0.13
653.274	0.13
653.604	0.13
653.935	0.13
654.266	0.13
654.596	0.13
654.927	0.12
655.258	0.13
655.588	0.13
655.918	0.13
656.249	0.11
656.579	0.12
656.909	0.13
657.24	0.12
657.57	0.13
657.9	0.13
658.23	0.12
658.56	0.13
658.89	0.13
659.22	0.12
659.55	0.13
659.88	0.13
660.209	0.13
660.539	0.14
660.869	0.14
661.198	0.13
661.528	0.13
661.857	0.13
662.187	0.13
662.516	0.13
662.846	0.12
663.175	0.13
663.504	0.13
663.833	0.12
664.163	0.13
664.492	0.12
664.821	0.12
665.15	0.12
665.479	0.12
665.807	0.12
666.136	0.12
666.465	0.12
666.794	0.12
667.122	0.12
667.451	0.12
667.78	0.12
668.108	0.12
668.437	0.12
668.765	0.12
669.093	0.12
669.422	0.12
669.75	0.12
670.078	0.12
670.406	0.12
670.734	0.12
671.062	0.12
671.39	0.12
671.718	0.12
672.046	0.12
672.374	0.11
672.702	0.11
673.029	0.11
673.357	0.11
673.685	0.12
674.012	0.12
674.34	0.12
674.667	0.12
674.995	0.12
675.322	0.12
675.649	0.11
675.977	0.12
676.304	0.11
676.631	0.12
676.958	0.11
677.285	0.11
677.612	0.11
677.939	0.11
678.266	0.12
678.593	0.12
678.92	0.11
679.246	0.12
679.573	0.11
679.9	0.11
680.226	0.11
680.553	0.11
680.879	0.12
681.206	0.11
681.532	0.11
681.858	0.11
682.184	0.11
682.511	0.11
682.837	0.1
683.163	0.11
683.489	0.11
683.815	0.1
684.141	0.11
684.467	0.1
684.793	0.1
685.118	0.11
685.444	0.1
685.77	0.11
686.095	0.11
686.421	0.1
686.746	0.11
687.072	0.11
687.397	0.1
687.723	0.11
688.048	0.12
688.373	0.1
688.698	0.11
689.023	0.11
689.349	0.11
689.674	0.11
689.999	0.11
690.323	0.1
690.648	0.1
690.973	0.1
691.298	0.1
691.623	0.11
691.947	0.11
692.272	0.1
692.596	0.11
692.921	0.1
693.245	0.1
693.57	0.1
693.894	0.11
694.218	0.1
694.543	0.1
694.867	0.1
695.191	0.09
695.515	0.11
695.839	0.1
696.163	0.09
696.487	0.1
696.811	0.1
697.135	0.1
697.458	0.1
697.782	0.09
698.106	0.1
698.429	0.11
698.753	0.09
699.076	0.09
699.4	0.1
699.723	0.1
700.046	0.09
700.37	0.1
700.693	0.1
701.016	0.1
701.339	0.1
701.662	0.1
701.985	0.1
702.308	0.09
702.631	0.09
702.954	0.1
703.277	0.1
703.599	0.1
703.922	0.09
704.245	0.09
704.567	0.09
704.89	0.09
705.212	0.09
705.535	0.08
705.857	0.08
706.179	0.08
706.502	0.08
706.824	0.08
707.146	0.08
707.468	0.09
707.79	0.08
708.112	0.09
708.434	0.09
708.756	0.09
709.078	0.09
709.399	0.08
709.721	0.08
710.043	0.08
710.364	0.08
710.686	0.08
711.007	0.09
711.329	0.09
711.65	0.09
711.972	0.09
712.293	0.09
712.614	0.09
712.935	0.09
713.256	0.09
713.577	0.09
713.898	0.09
714.219	0.08
714.54	0.08
714.861	0.08
715.182	0.09
715.503	0.08
715.823	0.08
716.144	0.08
716.464	0.08
716.785	0.07
717.105	0.08
717.426	0.08
717.746	0.08
718.066	0.07
718.387	0.07
718.707	0.07
719.027	0.08
719.347	0.07
719.667	0.07
719.987	0.07
720.307	0.06
720.627	0.07
720.947	0.07
721.266	0.07
721.586	0.07
721.906	0.07
722.225	0.07
722.545	0.07
722.864	0.07
723.184	0.07
723.503	0.07
723.823	0.08
