Data from 12-12-AQDScycling_Absorbance__643__00643.txt Node

Date: Tue Dec 12 13:37:29 EST 2023
User: kyuminlee
Spectrometer: FLMS00943
Trigger mode: 0
Integration Time (sec): 1.000000E-1
Scans to average: 1
Electric dark correction enabled: true
Nonlinearity correction enabled: false
Boxcar width: 0
XAxis mode: Wavelengths
Number of Pixels in Spectrum: 2048
>>>>>Begin Spectral Data<<<<<
179.651	-0
180.037	-0
180.424	-0
180.81	-0
181.197	-0.07
181.583	-0
181.97	-0.56
182.356	-0
182.743	-0
183.129	-0
183.515	1.09
183.901	-2.57
184.288	0.29
184.674	-0
185.06	-0
185.446	-0
185.832	-0.5
186.218	0.43
186.604	0.1
186.99	-0.18
187.376	-0.06
187.762	-0
188.148	-0
188.534	-0.29
188.92	0.07
189.305	-0.06
189.691	0.18
190.077	0.22
190.463	0.1
190.848	0.18
191.234	0.06
191.619	-0.03
192.005	0.15
192.391	0.27
192.776	0.11
193.161	0.14
193.547	0.2
193.932	0.04
194.318	0.05
194.703	0.12
195.088	0.44
195.473	0.19
195.859	0.17
196.244	0.25
196.629	0.23
197.014	0.23
197.399	0.11
197.784	0.08
198.169	0.19
198.554	0.17
198.939	0.16
199.324	0.2
199.709	-0
200.094	0.13
200.478	0.05
200.863	0.12
201.248	0.3
201.633	0.16
202.017	0.07
202.402	0.23
202.787	0.08
203.171	0.22
203.556	0.26
203.94	0.08
204.325	0.27
204.709	0.39
205.093	0.06
205.478	0.1
205.862	0.1
206.246	0.19
206.631	0.05
207.015	0.13
207.399	0.19
207.783	0.12
208.167	0.17
208.551	0.23
208.935	0.16
209.319	0.1
209.703	0.1
210.087	0.29
210.471	0.09
210.855	0.36
211.239	0.24
211.623	0.42
212.007	0.2
212.39	0.3
212.774	0.27
213.158	0.09
213.541	0.22
213.925	0.29
214.309	0.2
214.692	0.33
215.076	0.32
215.459	0.23
215.842	0.19
216.226	0.27
216.609	0.31
216.993	0.21
217.376	0.29
217.759	0.13
218.142	0.33
218.525	0.5
218.909	0.37
219.292	0.43
219.675	0.53
220.058	0.61
220.441	0.4
220.824	0.47
221.207	0.57
221.59	0.5
221.973	0.53
222.355	0.65
222.738	0.61
223.121	0.56
223.504	0.57
223.886	0.63
224.269	0.73
224.652	0.67
225.034	0.89
225.417	0.66
225.799	0.9
226.182	0.87
226.564	0.84
226.947	0.83
227.329	0.8
227.711	1.08
228.094	0.92
228.476	0.92
228.858	0.84
229.24	0.91
229.623	0.94
230.005	0.79
230.387	0.93
230.769	0.85
231.151	0.96
231.533	0.95
231.915	0.89
232.297	1.14
232.679	0.95
233.061	1.11
233.442	1.07
233.824	0.9
234.206	1.04
234.588	1.08
234.969	1.1
235.351	1.01
235.733	1.01
236.114	1.18
236.496	1.08
236.877	1.09
237.259	1.07
237.64	1.15
238.022	1
238.403	1.04
238.784	0.91
239.165	1.05
239.547	1.12
239.928	1.14
240.309	1.08
240.69	1.21
241.071	1.11
241.452	1.2
241.834	1.09
242.215	1.1
242.595	1.08
242.976	1.2
243.357	1.11
243.738	1.22
244.119	1.23
244.5	1.1
244.881	1.27
245.261	1.11
245.642	1.09
246.023	1.19
246.403	1.19
246.784	1.3
247.164	1.32
247.545	1.27
247.925	1.32
248.306	1.25
248.686	1.44
249.067	1.29
249.447	1.29
249.827	1.56
250.207	1.44
250.588	1.44
250.968	1.29
251.348	1.31
251.728	1.44
252.108	1.39
252.488	1.51
252.868	1.43
253.248	1.36
253.628	1.43
254.008	1.53
254.388	1.35
254.768	1.34
255.147	1.38
255.527	1.37
255.907	1.44
256.287	1.41
256.666	1.41
257.046	1.64
257.425	1.44
257.805	1.29
258.184	1.35
258.564	1.32
258.943	1.27
259.323	1.43
259.702	1.54
260.081	1.51
260.461	1.51
260.84	1.48
261.219	2.05
261.598	1.54
261.977	1.46
262.356	1.54
262.736	1.59
263.115	1.55
263.494	1.52
263.873	1.44
264.251	1.51
264.63	1.61
265.009	1.53
265.388	1.44
265.767	1.3
266.145	1.45
266.524	1.45
266.903	1.64
267.281	1.39
267.66	1.46
268.039	1.52
268.417	1.56
268.796	1.47
269.174	1.41
269.552	1.3
269.931	1.47
270.309	1.48
270.687	1.65
271.066	1.59
271.444	1.51
271.822	1.57
272.2	1.45
272.578	1.59
272.956	1.45
273.334	1.39
273.712	1.48
274.09	1.48
274.468	1.48
274.846	1.28
275.224	1.55
275.602	1.45
275.98	1.54
276.357	1.32
276.735	1.44
277.113	1.39
277.49	1.4
277.868	1.3
278.246	1.45
278.623	1.2
279.001	1.34
279.378	1.46
279.756	1.44
280.133	1.63
280.51	1.32
280.888	1.48
281.265	1.35
281.642	1.56
282.019	1.52
282.396	1.48
282.773	1.52
283.151	1.52
283.528	1.47
283.905	1.43
284.282	1.62
284.659	1.55
285.035	1.39
285.412	1.36
285.789	1.52
286.166	1.52
286.543	1.53
286.919	1.6
287.296	1.34
287.673	1.87
288.049	1.49
288.426	1.7
288.802	1.6
289.179	1.46
289.555	1.74
289.932	1.6
290.308	1.32
290.684	1.39
291.061	1.4
291.437	1.6
291.813	1.41
292.189	1.25
292.565	1.35
292.942	1.34
293.318	1.44
293.694	1.43
294.07	1.35
294.446	1.44
294.822	1.6
295.197	1.52
295.573	1.45
295.949	1.49
296.325	1.67
296.701	1.7
297.076	1.59
297.452	1.52
297.828	1.43
298.203	1.6
298.579	1.4
298.954	1.49
299.33	1.45
299.705	1.54
300.081	1.5
300.456	1.49
300.831	1.48
301.206	1.39
301.582	1.49
301.957	1.41
302.332	1.48
302.707	1.37
303.082	1.33
303.457	1.42
303.832	1.42
304.207	1.38
304.582	1.36
304.957	1.37
305.332	1.38
305.707	1.3
306.082	1.37
306.456	1.42
306.831	1.37
307.206	1.39
307.58	1.39
307.955	1.28
308.33	1.37
308.704	1.28
309.079	1.29
309.453	1.38
309.828	1.32
310.202	1.24
310.576	1.27
310.951	1.33
311.325	1.27
311.699	1.24
312.073	1.19
312.447	1.24
312.821	1.16
313.196	1.26
313.57	1.18
313.944	1.29
314.317	1.24
314.691	1.23
315.065	1.29
315.439	1.21
315.813	1.21
316.187	1.2
316.56	1.23
316.934	1.28
317.308	1.22
317.681	1.2
318.055	1.21
318.428	1.26
318.802	1.27
319.175	1.27
319.549	1.26
319.922	1.08
320.295	1.18
320.669	1.36
321.042	1.27
321.415	1.33
321.788	1.27
322.162	1.21
322.535	1.31
322.908	1.3
323.281	1.23
323.654	1.33
324.027	1.28
324.4	1.37
324.773	1.32
325.145	1.25
325.518	1.27
325.891	1.2
326.264	1.37
326.636	1.19
327.009	1.25
327.382	1.27
327.754	1.36
328.127	1.36
328.499	1.32
328.872	1.27
329.244	1.32
329.616	1.29
329.989	1.28
330.361	1.36
330.733	1.33
331.106	1.34
331.478	1.39
331.85	1.34
332.222	1.26
332.594	1.27
332.966	1.36
333.338	1.31
333.71	1.42
334.082	1.41
334.454	1.41
334.826	1.3
335.197	1.33
335.569	1.35
335.941	1.3
336.312	1.3
336.684	1.22
337.056	1.35
337.427	1.46
337.799	1.37
338.17	1.45
338.542	1.31
338.913	1.47
339.284	1.36
339.656	1.42
340.027	1.31
340.398	1.41
340.769	1.32
341.141	1.39
341.512	1.38
341.883	1.36
342.254	1.29
342.625	1.34
342.996	1.27
343.367	1.28
343.738	1.4
344.108	1.27
344.479	1.52
344.85	1.38
345.221	1.52
345.591	1.26
345.962	1.34
346.333	1.31
346.703	1.16
347.074	1.24
347.444	1.2
347.815	1.3
348.185	1.33
348.556	1.28
348.926	1.2
349.296	1.3
349.666	1.33
350.037	1.23
350.407	1.17
350.777	1.3
351.147	1.38
351.517	1.29
351.887	1.41
352.257	1.31
352.627	1.39
352.997	1.33
353.367	1.41
353.737	1.46
354.106	1.43
354.476	1.34
354.846	1.48
355.216	1.37
355.585	1.4
355.955	1.42
356.324	1.54
356.694	1.38
357.063	1.41
357.433	1.35
357.802	1.44
358.171	1.48
358.541	1.38
358.91	1.52
359.279	1.46
359.648	1.4
360.017	1.54
360.387	1.54
360.756	1.34
361.125	1.48
361.494	1.51
361.863	1.45
362.231	1.55
362.6	1.43
362.969	1.53
363.338	1.4
363.707	1.5
364.075	1.55
364.444	1.37
364.813	1.43
365.181	1.47
365.55	1.43
365.918	1.58
366.287	1.51
366.655	1.54
367.024	1.44
367.392	1.42
367.76	1.48
368.128	1.51
368.497	1.53
368.865	1.41
369.233	1.44
369.601	1.5
369.969	1.5
370.337	1.55
370.705	1.59
371.073	1.51
371.441	1.53
371.809	1.53
372.177	1.41
372.544	1.45
372.912	1.49
373.28	1.4
373.647	1.51
374.015	1.54
374.383	1.67
374.75	1.57
375.118	1.61
375.485	1.71
375.853	1.64
376.22	1.58
376.587	1.62
376.955	1.52
377.322	1.71
377.689	1.51
378.056	1.47
378.423	1.49
378.79	1.55
379.157	1.48
379.524	1.61
379.891	1.45
380.258	1.55
380.625	1.51
380.992	1.58
381.359	1.59
381.726	1.77
382.092	1.45
382.459	1.51
382.826	1.6
383.192	1.57
383.559	1.58
383.925	1.57
384.292	1.65
384.658	1.57
385.025	1.52
385.391	1.78
385.757	1.56
386.123	1.59
386.49	1.48
386.856	1.56
387.222	1.76
387.588	1.59
387.954	1.82
388.32	1.64
388.686	1.62
389.052	1.5
389.418	1.77
389.784	1.47
390.15	1.54
390.515	1.49
390.881	1.76
391.247	1.51
391.613	1.75
391.978	1.47
392.344	1.59
392.709	1.66
393.075	1.59
393.44	1.59
393.806	1.71
394.171	1.54
394.536	1.52
394.902	1.62
395.267	1.54
395.632	1.41
395.997	1.57
396.362	1.55
396.727	1.55
397.092	1.56
397.457	1.65
397.822	1.53
398.187	1.58
398.552	1.53
398.917	1.48
399.282	1.47
399.646	1.55
400.011	1.61
400.376	1.44
400.74	1.59
401.105	1.49
401.47	1.55
401.834	1.54
402.199	1.45
402.563	1.51
402.927	1.64
403.292	1.75
403.656	1.52
404.02	1.49
404.384	1.6
404.749	1.57
405.113	1.72
405.477	1.67
405.841	1.62
406.205	1.62
406.569	1.42
406.933	1.58
407.296	1.59
407.66	1.49
408.024	1.56
408.388	1.65
408.752	1.64
409.115	1.65
409.479	1.64
409.842	1.59
410.206	1.44
410.569	1.51
410.933	1.49
411.296	1.43
411.66	1.53
412.023	1.38
412.386	1.4
412.749	1.36
413.113	1.44
413.476	1.43
413.839	1.48
414.202	1.34
414.565	1.37
414.928	1.42
415.291	1.34
415.654	1.42
416.017	1.72
416.38	1.35
416.742	1.39
417.105	1.38
417.468	1.31
417.83	1.41
418.193	1.51
418.556	1.39
418.918	1.38
419.281	1.48
419.643	1.4
420.005	1.46
420.368	1.36
420.73	1.38
421.092	1.44
421.455	1.57
421.817	1.34
422.179	1.4
422.541	1.4
422.903	1.55
423.265	1.44
423.627	1.44
423.989	1.46
424.351	1.43
424.713	1.44
425.075	1.35
425.436	1.47
425.798	1.42
426.16	1.48
426.521	1.45
426.883	1.41
427.245	1.39
427.606	1.3
427.967	1.25
428.329	1.37
428.69	1.43
429.052	1.38
429.413	1.37
429.774	1.39
430.135	1.45
430.497	1.4
430.858	1.34
431.219	1.33
431.58	1.31
431.941	1.33
432.302	1.35
432.663	1.36
433.024	1.4
433.384	1.37
433.745	1.3
434.106	1.38
434.467	1.38
434.827	1.33
435.188	1.33
435.548	1.45
435.909	1.3
436.269	1.37
436.63	1.28
436.99	1.3
437.351	1.25
437.711	1.31
438.071	1.28
438.431	1.28
438.792	1.31
439.152	1.28
439.512	1.22
439.872	1.24
440.232	1.32
440.592	1.29
440.952	1.25
441.312	1.24
441.671	1.24
442.031	1.26
442.391	1.24
442.751	1.23
443.11	1.25
443.47	1.2
443.83	1.18
444.189	1.2
444.549	1.2
444.908	1.2
445.267	1.14
445.627	1.17
445.986	1.15
446.345	1.16
446.705	1.11
447.064	1.12
447.423	1.15
447.782	1.16
448.141	1.13
448.5	1.09
448.859	1.07
449.218	1.09
449.577	1.13
449.936	1.1
450.295	1.09
450.653	1.08
451.012	1.06
451.371	1.05
451.729	1.07
452.088	1.05
452.447	1.04
452.805	1.04
453.163	1.03
453.522	1.01
453.88	1.01
454.239	0.98
454.597	0.96
454.955	0.96
455.313	0.97
455.671	0.97
456.029	0.96
456.388	0.95
456.746	0.93
457.104	0.93
457.461	0.91
457.819	0.91
458.177	0.89
458.535	0.89
458.893	0.86
459.25	0.86
459.608	0.86
459.966	0.82
460.323	0.83
460.681	0.81
461.038	0.81
461.396	0.79
461.753	0.79
462.111	0.77
462.468	0.77
462.825	0.75
463.182	0.75
463.54	0.74
463.897	0.74
464.254	0.73
464.611	0.72
464.968	0.71
465.325	0.7
465.682	0.68
466.039	0.68
466.395	0.68
466.752	0.65
467.109	0.65
467.466	0.64
467.822	0.64
468.179	0.62
468.535	0.62
468.892	0.61
469.248	0.59
469.605	0.59
469.961	0.58
470.318	0.59
470.674	0.57
471.03	0.56
471.386	0.55
471.743	0.53
472.099	0.53
472.455	0.53
472.811	0.52
473.167	0.51
473.523	0.51
473.879	0.49
474.235	0.49
474.59	0.49
474.946	0.48
475.302	0.46
475.657	0.46
476.013	0.46
476.369	0.44
476.724	0.44
477.08	0.44
477.435	0.42
477.791	0.42
478.146	0.42
478.501	0.41
478.857	0.4
479.212	0.4
479.567	0.39
479.922	0.38
480.277	0.38
480.632	0.37
480.987	0.36
481.342	0.36
481.697	0.36
482.052	0.35
482.407	0.35
482.762	0.33
483.116	0.33
483.471	0.33
483.826	0.32
484.18	0.32
484.535	0.32
484.89	0.31
485.244	0.31
485.598	0.31
485.953	0.3
486.307	0.29
486.661	0.29
487.016	0.29
487.37	0.29
487.724	0.28
488.078	0.28
488.432	0.27
488.786	0.27
489.14	0.27
489.494	0.26
489.848	0.26
490.202	0.25
490.556	0.25
490.91	0.25
491.263	0.25
491.617	0.25
491.971	0.25
492.324	0.24
492.678	0.24
493.031	0.24
493.385	0.23
493.738	0.24
494.091	0.23
494.445	0.23
494.798	0.23
495.151	0.22
495.504	0.22
495.857	0.22
496.21	0.22
496.564	0.21
496.916	0.22
497.269	0.21
497.622	0.21
497.975	0.21
498.328	0.2
498.681	0.19
499.033	0.2
499.386	0.19
499.739	0.19
500.091	0.19
500.444	0.2
500.796	0.19
501.149	0.18
501.501	0.19
501.854	0.19
502.206	0.19
502.558	0.19
502.91	0.19
503.263	0.18
503.615	0.18
503.967	0.18
504.319	0.18
504.671	0.18
505.023	0.18
505.375	0.18
505.726	0.18
506.078	0.18
506.43	0.17
506.782	0.17
507.133	0.18
507.485	0.17
507.837	0.19
508.188	0.17
508.54	0.17
508.891	0.18
509.243	0.17
509.594	0.17
509.945	0.17
510.296	0.17
510.648	0.17
510.999	0.17
511.35	0.17
511.701	0.17
512.052	0.18
512.403	0.17
512.754	0.17
513.105	0.16
513.456	0.17
513.807	0.16
514.157	0.17
514.508	0.17
514.859	0.16
515.209	0.17
515.56	0.17
515.91	0.16
516.261	0.17
516.611	0.16
516.962	0.17
517.312	0.17
517.662	0.16
518.013	0.16
518.363	0.17
518.713	0.16
519.063	0.17
519.413	0.16
519.763	0.16
520.113	0.16
520.463	0.17
520.813	0.17
521.163	0.17
521.512	0.17
521.862	0.17
522.212	0.16
522.562	0.17
522.911	0.17
523.261	0.17
523.61	0.17
523.96	0.17
524.309	0.17
524.658	0.17
525.008	0.16
525.357	0.16
525.706	0.17
526.056	0.16
526.405	0.16
526.754	0.16
527.103	0.16
527.452	0.16
527.801	0.17
528.15	0.17
528.499	0.16
528.847	0.17
529.196	0.18
529.545	0.18
529.893	0.17
530.242	0.16
530.591	0.18
530.939	0.18
531.288	0.17
531.636	0.18
531.985	0.17
532.333	0.17
532.681	0.17
533.029	0.17
533.378	0.17
533.726	0.17
534.074	0.18
534.422	0.17
534.77	0.18
535.118	0.17
535.466	0.18
535.814	0.17
536.162	0.17
536.509	0.18
536.857	0.17
537.205	0.18
537.552	0.18
537.9	0.18
538.248	0.18
538.595	0.17
538.943	0.18
539.29	0.17
539.637	0.17
539.985	0.18
540.332	0.17
540.679	0.17
541.026	0.16
541.373	0.17
541.721	0.17
542.068	0.17
542.415	0.17
542.762	0.17
543.108	0.16
543.455	0.17
543.802	0.17
544.149	0.17
544.496	0.17
544.842	0.17
545.189	0.15
545.535	0.16
545.882	0.16
546.228	0.16
546.575	0.16
546.921	0.17
547.267	0.16
547.614	0.16
547.96	0.16
548.306	0.16
548.652	0.16
548.998	0.17
549.344	0.17
549.69	0.17
550.036	0.17
550.382	0.17
550.728	0.17
551.074	0.17
551.42	0.17
551.765	0.17
552.111	0.17
552.457	0.17
552.802	0.17
553.148	0.17
553.493	0.17
553.839	0.17
554.184	0.18
554.529	0.17
554.875	0.18
555.22	0.18
555.565	0.17
555.91	0.18
556.255	0.17
556.6	0.18
556.945	0.17
557.29	0.17
557.635	0.18
557.98	0.17
558.325	0.17
558.67	0.17
559.014	0.18
559.359	0.17
559.704	0.18
560.048	0.17
560.393	0.17
560.737	0.16
561.082	0.17
561.426	0.17
561.77	0.17
562.115	0.17
562.459	0.17
562.803	0.17
563.147	0.16
563.491	0.18
563.835	0.18
564.179	0.17
564.523	0.17
564.867	0.17
565.211	0.18
565.555	0.17
565.899	0.18
566.242	0.17
566.586	0.17
566.93	0.18
567.273	0.18
567.617	0.18
567.96	0.18
568.304	0.18
568.647	0.17
568.99	0.18
569.334	0.18
569.677	0.18
570.02	0.18
570.363	0.18
570.706	0.17
571.049	0.18
571.392	0.18
571.735	0.18
572.078	0.17
572.421	0.19
572.764	0.18
573.106	0.18
573.449	0.17
573.792	0.18
574.134	0.17
574.477	0.17
574.819	0.17
575.162	0.17
575.504	0.17
575.847	0.18
576.189	0.17
576.531	0.18
576.873	0.18
577.215	0.17
577.558	0.17
577.9	0.17
578.242	0.17
578.584	0.18
578.926	0.17
579.267	0.17
579.609	0.17
579.951	0.17
580.293	0.18
580.634	0.18
580.976	0.18
581.318	0.17
581.659	0.18
582.001	0.17
582.342	0.17
582.683	0.17
583.025	0.17
583.366	0.17
583.707	0.17
584.049	0.17
584.39	0.17
584.731	0.16
585.072	0.17
585.413	0.18
585.754	0.17
586.095	0.17
586.435	0.17
586.776	0.17
587.117	0.17
587.458	0.17
587.798	0.17
588.139	0.17
588.48	0.17
588.82	0.17
589.161	0.17
589.501	0.16
589.841	0.17
590.182	0.17
590.522	0.17
590.862	0.17
591.202	0.17
591.542	0.17
591.882	0.17
592.222	0.17
592.562	0.17
592.902	0.17
593.242	0.16
593.582	0.18
593.922	0.17
594.261	0.17
594.601	0.17
594.941	0.17
595.28	0.17
595.62	0.17
595.959	0.16
596.299	0.17
596.638	0.17
596.977	0.17
597.317	0.17
597.656	0.17
597.995	0.17
598.334	0.18
598.673	0.17
599.012	0.17
599.351	0.18
599.69	0.17
600.029	0.18
600.368	0.18
600.707	0.18
601.046	0.17
601.384	0.18
601.723	0.18
602.061	0.17
602.4	0.17
602.738	0.17
603.077	0.17
603.415	0.17
603.754	0.18
604.092	0.18
604.43	0.16
604.768	0.17
605.107	0.18
605.445	0.16
605.783	0.17
606.121	0.17
606.459	0.17
606.796	0.18
607.134	0.16
607.472	0.16
607.81	0.18
608.148	0.17
608.485	0.17
608.823	0.17
609.16	0.16
609.498	0.17
609.835	0.17
610.173	0.17
610.51	0.16
610.847	0.17
611.185	0.16
611.522	0.16
611.859	0.17
612.196	0.17
612.533	0.17
612.87	0.17
613.207	0.17
613.544	0.17
613.881	0.18
614.217	0.17
614.554	0.17
614.891	0.17
615.228	0.17
615.564	0.17
615.901	0.17
616.237	0.17
616.574	0.17
616.91	0.18
617.246	0.17
617.583	0.18
617.919	0.18
618.255	0.18
618.591	0.17
618.927	0.18
619.263	0.17
619.599	0.17
619.935	0.17
620.271	0.17
620.607	0.18
620.943	0.17
621.279	0.18
621.614	0.17
621.95	0.17
622.286	0.18
622.621	0.16
622.957	0.16
623.292	0.16
623.627	0.17
623.963	0.17
624.298	0.17
624.633	0.16
624.968	0.16
625.304	0.16
625.639	0.16
625.974	0.16
626.309	0.16
626.644	0.16
626.979	0.16
627.313	0.16
627.648	0.17
627.983	0.16
628.318	0.16
628.652	0.16
628.987	0.16
629.321	0.16
629.656	0.15
629.99	0.15
630.325	0.16
630.659	0.15
630.993	0.15
631.327	0.16
631.662	0.14
631.996	0.15
632.33	0.15
632.664	0.15
632.998	0.14
633.332	0.14
633.666	0.15
633.999	0.14
634.333	0.15
634.667	0.15
635.001	0.14
635.334	0.15
635.668	0.14
636.001	0.15
636.335	0.15
636.668	0.15
637.001	0.14
637.335	0.15
637.668	0.15
638.001	0.14
638.334	0.15
638.668	0.15
639.001	0.15
639.334	0.14
639.667	0.14
639.999	0.14
640.332	0.15
640.665	0.14
640.998	0.15
641.331	0.15
641.663	0.13
641.996	0.14
642.328	0.15
642.661	0.15
642.993	0.15
643.326	0.15
643.658	0.14
643.99	0.14
644.323	0.13
644.655	0.14
644.987	0.14
645.319	0.14
645.651	0.14
645.983	0.15
646.315	0.14
646.647	0.14
646.979	0.15
647.31	0.15
647.642	0.14
647.974	0.14
648.305	0.14
648.637	0.14
648.968	0.15
649.3	0.14
649.631	0.14
649.963	0.14
650.294	0.14
650.625	0.13
650.957	0.15
651.288	0.15
651.619	0.14
651.95	0.15
652.281	0.15
652.612	0.14
652.943	0.14
653.274	0.15
653.604	0.14
653.935	0.14
654.266	0.14
654.596	0.14
654.927	0.14
655.258	0.14
655.588	0.14
655.918	0.14
656.249	0.12
656.579	0.13
656.909	0.14
657.24	0.13
657.57	0.14
657.9	0.14
658.23	0.14
658.56	0.14
658.89	0.14
659.22	0.13
659.55	0.14
659.88	0.14
660.209	0.14
660.539	0.15
660.869	0.14
661.198	0.14
661.528	0.13
661.857	0.13
662.187	0.14
662.516	0.14
662.846	0.13
663.175	0.13
663.504	0.13
663.833	0.13
664.163	0.13
664.492	0.13
664.821	0.14
665.15	0.13
665.479	0.13
665.807	0.14
666.136	0.14
666.465	0.14
666.794	0.13
667.122	0.13
667.451	0.14
667.78	0.14
668.108	0.14
668.437	0.13
668.765	0.13
669.093	0.14
669.422	0.13
669.75	0.13
670.078	0.13
670.406	0.14
670.734	0.14
671.062	0.13
671.39	0.14
671.718	0.13
672.046	0.13
672.374	0.13
672.702	0.12
673.029	0.12
673.357	0.13
673.685	0.13
674.012	0.13
674.34	0.12
674.667	0.13
674.995	0.13
675.322	0.13
675.649	0.12
675.977	0.13
676.304	0.12
676.631	0.12
676.958	0.13
677.285	0.12
677.612	0.12
677.939	0.12
678.266	0.13
678.593	0.13
678.92	0.12
679.246	0.12
679.573	0.12
679.9	0.11
680.226	0.12
680.553	0.12
680.879	0.12
681.206	0.12
681.532	0.12
681.858	0.13
682.184	0.12
682.511	0.12
682.837	0.12
683.163	0.12
683.489	0.12
683.815	0.12
684.141	0.12
684.467	0.12
684.793	0.12
685.118	0.12
685.444	0.12
685.77	0.12
686.095	0.12
686.421	0.11
686.746	0.12
687.072	0.12
687.397	0.11
687.723	0.12
688.048	0.12
688.373	0.11
688.698	0.11
689.023	0.11
689.349	0.11
689.674	0.12
689.999	0.11
690.323	0.11
690.648	0.11
690.973	0.11
691.298	0.11
691.623	0.11
691.947	0.11
692.272	0.11
692.596	0.11
692.921	0.12
693.245	0.11
693.57	0.12
693.894	0.11
694.218	0.12
694.543	0.11
694.867	0.11
695.191	0.11
695.515	0.12
695.839	0.11
696.163	0.12
696.487	0.11
696.811	0.11
697.135	0.12
697.458	0.12
697.782	0.11
698.106	0.11
698.429	0.12
698.753	0.12
699.076	0.11
699.4	0.1
699.723	0.1
700.046	0.1
700.37	0.11
700.693	0.12
701.016	0.11
701.339	0.11
701.662	0.11
701.985	0.11
702.308	0.11
702.631	0.11
702.954	0.11
703.277	0.11
703.599	0.11
703.922	0.1
704.245	0.11
704.567	0.1
704.89	0.1
705.212	0.11
705.535	0.1
705.857	0.1
706.179	0.09
706.502	0.09
706.824	0.09
707.146	0.1
707.468	0.1
707.79	0.1
708.112	0.1
708.434	0.1
708.756	0.1
709.078	0.1
709.399	0.1
709.721	0.1
710.043	0.1
710.364	0.1
710.686	0.1
711.007	0.1
711.329	0.11
711.65	0.1
711.972	0.11
712.293	0.11
712.614	0.11
712.935	0.11
713.256	0.1
713.577	0.11
713.898	0.1
714.219	0.1
714.54	0.09
714.861	0.09
715.182	0.09
715.503	0.09
715.823	0.09
716.144	0.09
716.464	0.09
716.785	0.09
717.105	0.09
717.426	0.1
717.746	0.09
718.066	0.08
718.387	0.08
718.707	0.08
719.027	0.09
719.347	0.08
719.667	0.09
719.987	0.08
720.307	0.08
720.627	0.08
720.947	0.09
721.266	0.09
721.586	0.08
721.906	0.09
722.225	0.08
722.545	0.08
722.864	0.09
723.184	0.09
723.503	0.09
