Data from 12-12-AQDScycling_Absorbance__112__00112.txt Node

Date: Tue Dec 12 11:24:44 EST 2023
User: kyuminlee
Spectrometer: FLMS00943
Trigger mode: 0
Integration Time (sec): 1.000000E-1
Scans to average: 1
Electric dark correction enabled: true
Nonlinearity correction enabled: false
Boxcar width: 0
XAxis mode: Wavelengths
Number of Pixels in Spectrum: 2048
>>>>>Begin Spectral Data<<<<<
179.651	-0
180.037	-0
180.424	-0
180.81	-0
181.197	-0.09
181.583	0.14
181.97	-0.43
182.356	-0
182.743	-0.96
183.129	0
183.515	0.74
183.901	-2.33
184.288	0.35
184.674	-0
185.06	-0.22
185.446	-0.4
185.832	-0
186.218	1.17
186.604	0.05
186.99	-0
187.376	-0
187.762	-0
188.148	0.45
188.534	-0.41
188.92	0.18
189.305	-0
189.691	0.08
190.077	0.17
190.463	0.02
190.848	0.21
191.234	0.16
191.619	0.15
192.005	0.1
192.391	0.1
192.776	0.06
193.161	0.12
193.547	0.12
193.932	0
194.318	0.09
194.703	0.19
195.088	0.38
195.473	0.2
195.859	0.13
196.244	0.12
196.629	0.05
197.014	0.16
197.399	0.25
197.784	0.1
198.169	0.08
198.554	0.29
198.939	0.07
199.324	0
199.709	0.11
200.094	0.1
200.478	0.11
200.863	0.08
201.248	0.07
201.633	0.24
202.017	0.17
202.402	0.3
202.787	0.17
203.171	0.11
203.556	0.26
203.94	0.11
204.325	0.17
204.709	0.12
205.093	0.02
205.478	0.14
205.862	0.21
206.246	0.13
206.631	0.2
207.015	0.06
207.399	0.28
207.783	0.13
208.167	0.18
208.551	0.29
208.935	0.19
209.319	0.17
209.703	0.08
210.087	0.12
210.471	0.07
210.855	0.11
211.239	0.25
211.623	0.18
212.007	0.27
212.39	0.14
212.774	0.09
213.158	0.12
213.541	0.23
213.925	0.21
214.309	0.21
214.692	0.27
215.076	0.18
215.459	0.06
215.842	0.15
216.226	0.31
216.609	0.33
216.993	0.19
217.376	0.42
217.759	0.14
218.142	0.35
218.525	0.64
218.909	0.44
219.292	0.25
219.675	0.49
220.058	0.34
220.441	0.57
220.824	0.59
221.207	0.44
221.59	0.44
221.973	0.53
222.355	0.56
222.738	0.52
223.121	0.5
223.504	0.51
223.886	0.67
224.269	0.65
224.652	0.63
225.034	0.81
225.417	0.68
225.799	0.8
226.182	0.98
226.564	0.76
226.947	0.77
227.329	0.79
227.711	0.85
228.094	0.94
228.476	0.86
228.858	0.79
229.24	0.79
229.623	0.95
230.005	0.8
230.387	0.81
230.769	0.89
231.151	0.86
231.533	0.8
231.915	0.98
232.297	0.99
232.679	0.81
233.061	0.86
233.442	0.88
233.824	0.94
234.206	1.05
234.588	1.13
234.969	0.94
235.351	0.89
235.733	1.01
236.114	1.13
236.496	0.98
236.877	1.1
237.259	1.01
237.64	1
238.022	1
238.403	1.03
238.784	1.03
239.165	0.95
239.547	1.06
239.928	1.16
240.309	1.06
240.69	0.98
241.071	1.1
241.452	1.03
241.834	1.16
242.215	1.07
242.595	1
242.976	1.15
243.357	1.15
243.738	1.03
244.119	1.33
244.5	1.07
244.881	1.12
245.261	1.09
245.642	1.09
246.023	1.23
246.403	1.1
246.784	1.31
247.164	1.16
247.545	1.28
247.925	1.22
248.306	1.23
248.686	1.28
249.067	1.25
249.447	1.27
249.827	1.35
250.207	1.59
250.588	1.25
250.968	1.35
251.348	1.44
251.728	1.29
252.108	1.44
252.488	1.37
252.868	1.4
253.248	1.3
253.628	1.38
254.008	1.27
254.388	1.45
254.768	1.28
255.147	1.34
255.527	1.46
255.907	1.25
256.287	1.38
256.666	1.48
257.046	1.44
257.425	1.4
257.805	1.3
258.184	1.28
258.564	1.32
258.943	1.33
259.323	1.53
259.702	1.45
260.081	1.47
260.461	1.5
260.84	1.4
261.219	1.6
261.598	1.53
261.977	1.5
262.356	1.55
262.736	1.42
263.115	1.51
263.494	1.55
263.873	1.44
264.251	1.48
264.63	1.62
265.009	1.51
265.388	1.3
265.767	1.38
266.145	1.4
266.524	1.36
266.903	1.39
267.281	1.34
267.66	1.4
268.039	1.42
268.417	1.36
268.796	1.4
269.174	1.36
269.552	1.28
269.931	1.43
270.309	1.32
270.687	1.56
271.066	1.52
271.444	1.3
271.822	1.49
272.2	1.37
272.578	1.44
272.956	1.31
273.334	1.29
273.712	1.37
274.09	1.41
274.468	1.38
274.846	1.43
275.224	1.27
275.602	1.36
275.98	1.53
276.357	1.41
276.735	1.42
277.113	1.35
277.49	1.35
277.868	1.25
278.246	1.27
278.623	1.37
279.001	1.45
279.378	1.28
279.756	1.55
280.133	1.52
280.51	1.29
280.888	1.49
281.265	1.29
281.642	1.32
282.019	1.46
282.396	1.54
282.773	1.37
283.151	1.53
283.528	1.53
283.905	1.37
284.282	1.51
284.659	1.49
285.035	1.37
285.412	1.37
285.789	1.47
286.166	1.37
286.543	1.37
286.919	1.54
287.296	1.53
287.673	1.63
288.049	1.51
288.426	1.5
288.802	1.45
289.179	1.43
289.555	1.63
289.932	1.38
290.308	1.26
290.684	1.3
291.061	1.37
291.437	1.57
291.813	1.44
292.189	1.21
292.565	1.33
292.942	1.31
293.318	1.42
293.694	1.36
294.07	1.3
294.446	1.32
294.822	1.45
295.197	1.37
295.573	1.47
295.949	1.29
296.325	1.41
296.701	1.61
297.076	1.45
297.452	1.49
297.828	1.34
298.203	1.5
298.579	1.26
298.954	1.32
299.33	1.27
299.705	1.29
300.081	1.31
300.456	1.3
300.831	1.22
301.206	1.25
301.582	1.23
301.957	1.18
302.332	1.23
302.707	1.12
303.082	1.13
303.457	1.13
303.832	1.08
304.207	1.06
304.582	1.02
304.957	1.03
305.332	1.03
305.707	1.03
306.082	1.02
306.456	1
306.831	0.96
307.206	0.93
307.58	0.91
307.955	0.88
308.33	0.89
308.704	0.91
309.079	0.86
309.453	0.86
309.828	0.84
310.202	0.79
310.576	0.77
310.951	0.8
311.325	0.76
311.699	0.78
312.073	0.74
312.447	0.72
312.821	0.73
313.196	0.74
313.57	0.71
313.944	0.72
314.317	0.66
314.691	0.68
315.065	0.68
315.439	0.67
315.813	0.67
316.187	0.65
316.56	0.68
316.934	0.63
317.308	0.62
317.681	0.62
318.055	0.6
318.428	0.6
318.802	0.6
319.175	0.6
319.549	0.58
319.922	0.58
320.295	0.58
320.669	0.62
321.042	0.59
321.415	0.58
321.788	0.56
322.162	0.55
322.535	0.55
322.908	0.55
323.281	0.55
323.654	0.57
324.027	0.52
324.4	0.55
324.773	0.57
325.145	0.56
325.518	0.58
325.891	0.54
326.264	0.55
326.636	0.55
327.009	0.54
327.382	0.58
327.754	0.56
328.127	0.56
328.499	0.56
328.872	0.59
329.244	0.58
329.616	0.56
329.989	0.57
330.361	0.6
330.733	0.59
331.106	0.6
331.478	0.61
331.85	0.61
332.222	0.59
332.594	0.64
332.966	0.66
333.338	0.66
333.71	0.66
334.082	0.68
334.454	0.67
334.826	0.69
335.197	0.69
335.569	0.68
335.941	0.67
336.312	0.7
336.684	0.73
337.056	0.74
337.427	0.76
337.799	0.75
338.17	0.75
338.542	0.75
338.913	0.78
339.284	0.79
339.656	0.78
340.027	0.82
340.398	0.82
340.769	0.81
341.141	0.82
341.512	0.82
341.883	0.85
342.254	0.86
342.625	0.85
342.996	0.9
343.367	0.86
343.738	0.94
344.108	0.89
344.479	0.98
344.85	0.94
345.221	1
345.591	0.9
345.962	1.04
346.333	1.02
346.703	0.95
347.074	1.01
347.444	0.98
347.815	1.01
348.185	1.12
348.556	1.05
348.926	1.06
349.296	1.09
349.666	1.04
350.037	1.08
350.407	1.04
350.777	1.1
351.147	1.17
351.517	1.18
351.887	1.13
352.257	1.17
352.627	1.2
352.997	1.22
353.367	1.33
353.737	1.24
354.106	1.3
354.476	1.27
354.846	1.35
355.216	1.34
355.585	1.37
355.955	1.43
356.324	1.39
356.694	1.37
357.063	1.4
357.433	1.34
357.802	1.46
358.171	1.46
358.541	1.38
358.91	1.5
359.279	1.6
359.648	1.4
360.017	1.53
360.387	1.57
360.756	1.37
361.125	1.54
361.494	1.62
361.863	1.44
362.231	1.54
362.6	1.43
362.969	1.54
363.338	1.47
363.707	1.55
364.075	1.59
364.444	1.49
364.813	1.47
365.181	1.35
365.55	1.45
365.918	1.6
366.287	1.63
366.655	1.75
367.024	1.66
367.392	1.54
367.76	1.42
368.128	1.54
368.497	1.5
368.865	1.52
369.233	1.52
369.601	1.53
369.969	1.43
370.337	1.53
370.705	1.5
371.073	1.49
371.441	1.47
371.809	1.51
372.177	1.43
372.544	1.48
372.912	1.49
373.28	1.53
373.647	1.52
374.015	1.7
374.383	2.07
374.75	1.76
375.118	1.5
375.485	1.64
375.853	1.66
376.22	1.42
376.587	1.49
376.955	1.52
377.322	1.68
377.689	1.39
378.056	1.57
378.423	1.42
378.79	1.46
379.157	1.53
379.524	1.63
379.891	1.47
380.258	1.55
380.625	1.53
380.992	1.44
381.359	1.51
381.726	1.65
382.092	1.47
382.459	1.57
382.826	1.55
383.192	1.56
383.559	1.46
383.925	1.53
384.292	1.59
384.658	1.7
385.025	1.54
385.391	1.66
385.757	1.57
386.123	1.53
386.49	1.49
386.856	1.45
387.222	1.64
387.588	1.63
387.954	1.73
388.32	1.57
388.686	1.51
389.052	1.51
389.418	1.57
389.784	1.47
390.15	1.48
390.515	1.32
390.881	1.59
391.247	1.43
391.613	1.54
391.978	1.46
392.344	1.73
392.709	1.65
393.075	1.49
393.44	1.63
393.806	1.5
394.171	1.56
394.536	1.43
394.902	1.6
395.267	1.51
395.632	1.41
395.997	1.54
396.362	1.4
396.727	1.57
397.092	1.6
397.457	1.55
397.822	1.47
398.187	1.5
398.552	1.44
398.917	1.66
399.282	1.6
399.646	1.56
400.011	1.6
400.376	1.4
400.74	1.52
401.105	1.49
401.47	1.51
401.834	1.59
402.199	1.45
402.563	1.55
402.927	1.55
403.292	1.62
403.656	1.57
404.02	1.55
404.384	1.68
404.749	1.61
405.113	1.56
405.477	1.6
405.841	1.68
406.205	1.62
406.569	1.64
406.933	1.47
407.296	1.57
407.66	1.55
408.024	1.54
408.388	1.71
408.752	1.54
409.115	1.7
409.479	1.67
409.842	1.49
410.206	1.54
410.569	1.52
410.933	1.56
411.296	1.4
411.66	1.55
412.023	1.49
412.386	1.57
412.749	1.39
413.113	1.55
413.476	1.36
413.839	1.41
414.202	1.54
414.565	1.45
414.928	1.41
415.291	1.38
415.654	1.46
416.017	1.64
416.38	1.35
416.742	1.44
417.105	1.42
417.468	1.41
417.83	1.47
418.193	1.66
418.556	1.51
418.918	1.39
419.281	1.49
419.643	1.54
420.005	1.43
420.368	1.49
420.73	1.42
421.092	1.58
421.455	1.63
421.817	1.43
422.179	1.55
422.541	1.47
422.903	1.75
423.265	1.6
423.627	1.57
423.989	1.45
424.351	1.5
424.713	1.54
425.075	1.45
425.436	1.57
425.798	1.48
426.16	1.57
426.521	1.5
426.883	1.58
427.245	1.58
427.606	1.41
427.967	1.44
428.329	1.45
428.69	1.54
429.052	1.45
429.413	1.55
429.774	1.51
430.135	1.54
430.497	1.59
430.858	1.54
431.219	1.62
431.58	1.52
431.941	1.47
432.302	1.42
432.663	1.58
433.024	1.47
433.384	1.64
433.745	1.55
434.106	1.65
434.467	1.59
434.827	1.55
435.188	1.5
435.548	1.59
435.909	1.51
436.269	1.59
436.63	1.41
436.99	1.45
437.351	1.41
437.711	1.57
438.071	1.49
438.431	1.49
438.792	1.43
439.152	1.42
439.512	1.42
439.872	1.47
440.232	1.54
440.592	1.48
440.952	1.49
441.312	1.46
441.671	1.48
442.031	1.46
442.391	1.43
442.751	1.52
443.11	1.43
443.47	1.42
443.83	1.4
444.189	1.39
444.549	1.47
444.908	1.36
445.267	1.46
445.627	1.42
445.986	1.36
446.345	1.36
446.705	1.38
447.064	1.38
447.423	1.38
447.782	1.51
448.141	1.4
448.5	1.36
448.859	1.34
449.218	1.36
449.577	1.42
449.936	1.34
450.295	1.4
450.653	1.36
451.012	1.32
451.371	1.29
451.729	1.32
452.088	1.33
452.447	1.33
452.805	1.36
453.163	1.28
453.522	1.3
453.88	1.3
454.239	1.29
454.597	1.23
454.955	1.2
455.313	1.19
455.671	1.24
456.029	1.23
456.388	1.21
456.746	1.2
457.104	1.19
457.461	1.17
457.819	1.16
458.177	1.15
458.535	1.11
458.893	1.12
459.25	1.1
459.608	1.09
459.966	1.06
460.323	1.06
460.681	1.02
461.038	1.04
461.396	0.99
461.753	1.01
462.111	1
462.468	0.97
462.825	0.97
463.182	0.94
463.54	0.91
463.897	0.95
464.254	0.9
464.611	0.9
464.968	0.87
465.325	0.88
465.682	0.86
466.039	0.83
466.395	0.81
466.752	0.82
467.109	0.79
467.466	0.79
467.822	0.78
468.179	0.75
468.535	0.78
468.892	0.74
469.248	0.73
469.605	0.71
469.961	0.7
470.318	0.71
470.674	0.7
471.03	0.67
471.386	0.67
471.743	0.65
472.099	0.63
472.455	0.63
472.811	0.62
473.167	0.6
473.523	0.59
473.879	0.58
474.235	0.57
474.59	0.56
474.946	0.54
475.302	0.54
475.657	0.52
476.013	0.53
476.369	0.49
476.724	0.5
477.08	0.5
477.435	0.48
477.791	0.47
478.146	0.46
478.501	0.46
478.857	0.46
479.212	0.45
479.567	0.43
479.922	0.41
480.277	0.41
480.632	0.4
480.987	0.39
481.342	0.39
481.697	0.37
482.052	0.37
482.407	0.35
482.762	0.35
483.116	0.34
483.471	0.34
483.826	0.33
484.18	0.33
484.535	0.31
484.89	0.3
485.244	0.3
485.598	0.3
485.953	0.29
486.307	0.28
486.661	0.28
487.016	0.27
487.37	0.27
487.724	0.26
488.078	0.25
488.432	0.25
488.786	0.24
489.14	0.24
489.494	0.23
489.848	0.23
490.202	0.22
490.556	0.22
490.91	0.22
491.263	0.21
491.617	0.21
491.971	0.2
492.324	0.2
492.678	0.19
493.031	0.19
493.385	0.18
493.738	0.17
494.091	0.18
494.445	0.17
494.798	0.16
495.151	0.16
495.504	0.16
495.857	0.16
496.21	0.16
496.564	0.16
496.916	0.16
497.269	0.14
497.622	0.14
497.975	0.14
498.328	0.14
498.681	0.13
499.033	0.13
499.386	0.12
499.739	0.12
500.091	0.12
500.444	0.12
500.796	0.12
501.149	0.11
501.501	0.11
501.854	0.11
502.206	0.11
502.558	0.11
502.91	0.1
503.263	0.1
503.615	0.1
503.967	0.1
504.319	0.1
504.671	0.09
505.023	0.09
505.375	0.09
505.726	0.08
506.078	0.08
506.43	0.08
506.782	0.08
507.133	0.08
507.485	0.08
507.837	0.08
508.188	0.08
508.54	0.08
508.891	0.08
509.243	0.07
509.594	0.07
509.945	0.07
510.296	0.07
510.648	0.07
510.999	0.06
511.35	0.06
511.701	0.06
512.052	0.06
512.403	0.06
512.754	0.06
513.105	0.05
513.456	0.05
513.807	0.05
514.157	0.05
514.508	0.05
514.859	0.04
515.209	0.05
515.56	0.05
515.91	0.04
516.261	0.05
516.611	0.04
516.962	0.04
517.312	0.05
517.662	0.04
518.013	0.04
518.363	0.05
518.713	0.04
519.063	0.04
519.413	0.04
519.763	0.03
520.113	0.04
520.463	0.04
520.813	0.04
521.163	0.04
521.512	0.04
521.862	0.04
522.212	0.04
522.562	0.04
522.911	0.04
523.261	0.04
523.61	0.04
523.96	0.04
524.309	0.04
524.658	0.03
525.008	0.03
525.357	0.03
525.706	0.04
526.056	0.03
526.405	0.03
526.754	0.04
527.103	0.03
527.452	0.03
527.801	0.04
528.15	0.04
528.499	0.03
528.847	0.03
529.196	0.04
529.545	0.04
529.893	0.04
530.242	0.04
530.591	0.04
530.939	0.04
531.288	0.04
531.636	0.03
531.985	0.03
532.333	0.03
532.681	0.04
533.029	0.03
533.378	0.04
533.726	0.03
534.074	0.03
534.422	0.02
534.77	0.03
535.118	0.03
535.466	0.03
535.814	0.02
536.162	0.03
536.509	0.04
536.857	0.03
537.205	0.03
537.552	0.03
537.9	0.03
538.248	0.02
538.595	0.03
538.943	0.03
539.29	0.02
539.637	0.02
539.985	0.02
540.332	0.02
540.679	0.02
541.026	0.02
541.373	0.02
541.721	0.01
542.068	0.01
542.415	0.02
542.762	0.02
543.108	0.01
543.455	0.01
543.802	0.02
544.149	0.01
544.496	0.01
544.842	0.01
545.189	0
545.535	0.01
545.882	0.02
546.228	0.01
546.575	0.02
546.921	0.01
547.267	0.01
547.614	0.02
547.96	0.02
548.306	0.02
548.652	0.01
548.998	0.02
549.344	0.01
549.69	0.02
550.036	0.01
550.382	0.01
550.728	0.01
551.074	0.02
551.42	0.02
551.765	0.02
552.111	0.02
552.457	0.02
552.802	0.03
553.148	0.02
553.493	0.01
553.839	0.02
554.184	0.02
554.529	0.01
554.875	0.02
555.22	0.02
555.565	0.03
555.91	0.02
556.255	0.02
556.6	0.02
556.945	0.01
557.29	0.02
557.635	0.02
557.98	0.02
558.325	0.02
558.67	0.02
559.014	0.02
559.359	0.02
559.704	0.01
560.048	0.01
560.393	0.01
560.737	-0
561.082	0.01
561.426	0
561.77	0.01
562.115	0
562.459	0.01
562.803	0
563.147	0.01
563.491	0.01
563.835	0.02
564.179	0.01
564.523	0.01
564.867	0.01
565.211	0.01
565.555	0.02
565.899	0.02
566.242	0.01
566.586	0.01
566.93	0.01
567.273	0.02
567.617	0.01
567.96	0.02
568.304	0.02
568.647	0.01
568.99	0.02
569.334	0.02
569.677	0.02
570.02	0.02
570.363	0.01
570.706	0.01
571.049	0.01
571.392	0.02
571.735	0.01
572.078	0.01
572.421	0.03
572.764	0.02
573.106	0.02
573.449	0.01
573.792	0.02
574.134	0.02
574.477	0.02
574.819	0.01
575.162	0.01
575.504	0.01
575.847	0.01
576.189	0.02
576.531	0.01
576.873	0.01
577.215	0.02
577.558	0.02
577.9	0.01
578.242	0.01
578.584	0.01
578.926	0.01
579.267	0.01
579.609	0.01
579.951	0.01
580.293	0.01
580.634	0
580.976	0.01
581.318	0
581.659	0
582.001	0
582.342	0
582.683	0.01
583.025	-0
583.366	0
583.707	0.01
584.049	0.01
584.39	0.01
584.731	0.01
585.072	0.01
585.413	0.01
585.754	0.01
586.095	0.01
586.435	0.01
586.776	0.01
587.117	0.02
587.458	0.01
587.798	0.01
588.139	0.01
588.48	0
588.82	0
589.161	0.01
589.501	0
589.841	0.01
590.182	0.01
590.522	0
590.862	0.01
591.202	0
591.542	0.01
591.882	0.01
592.222	0.01
592.562	0
592.902	0.01
593.242	0.01
593.582	0.01
593.922	0.01
594.261	0
594.601	0.01
594.941	0
595.28	0.01
595.62	0.01
595.959	0.01
596.299	0.01
596.638	0
596.977	0
597.317	0.01
597.656	0
597.995	0.01
598.334	0.01
598.673	0.01
599.012	0.01
599.351	0.01
599.69	0
600.029	0.01
600.368	0
600.707	0.01
601.046	0.01
601.384	0.01
601.723	0.01
602.061	0.01
602.4	0.01
602.738	0.01
603.077	0
603.415	0
603.754	0.01
604.092	0.01
604.43	0.01
604.768	0.02
605.107	0.01
605.445	0.01
605.783	0.01
606.121	0.01
606.459	0.01
606.796	0.01
607.134	0
607.472	0.01
607.81	0.01
608.148	0.01
608.485	0.02
608.823	0.01
609.16	0.01
609.498	0.01
609.835	0.01
610.173	0
610.51	0.02
610.847	0.01
611.185	0.02
611.522	0.01
611.859	0.02
612.196	0.02
612.533	0.03
612.87	0.03
613.207	0.02
613.544	0.02
613.881	0.03
614.217	0.02
614.554	0.02
614.891	0.03
615.228	0.02
615.564	0.02
615.901	0.03
616.237	0.02
616.574	0.02
616.91	0.02
617.246	0.03
617.583	0.02
617.919	0.03
618.255	0.03
618.591	0.02
618.927	0.02
619.263	0.03
619.599	0.02
619.935	0.02
620.271	0.03
620.607	0.02
620.943	0.02
621.279	0.03
621.614	0.02
621.95	0.02
622.286	0.02
622.621	0.01
622.957	0.02
623.292	0.02
623.627	0.01
623.963	0.02
624.298	0.02
624.633	0.01
624.968	0.01
625.304	0.01
625.639	0.01
625.974	0.01
626.309	0.01
626.644	0.01
626.979	0.02
627.313	0.01
627.648	0.01
627.983	0.02
628.318	0.01
628.652	0.01
628.987	0.01
629.321	0.02
629.656	0.01
629.99	0.01
630.325	0.02
630.659	0.02
630.993	0.01
631.327	0.01
631.662	0.01
631.996	0.01
632.33	0.01
632.664	0.01
632.998	0.01
633.332	0.01
633.666	0.02
633.999	0.01
634.333	0.01
634.667	0.01
635.001	0
635.334	0
635.668	0.01
636.001	0.01
636.335	0
636.668	0.01
637.001	0
637.335	0.01
637.668	0.01
638.001	0
638.334	0.01
638.668	0.01
639.001	0.01
639.334	0
639.667	0.01
639.999	0
640.332	0.01
640.665	0.01
640.998	0.01
641.331	0.01
641.663	0.01
641.996	0.01
642.328	0.02
642.661	0.01
642.993	0.02
643.326	0.01
643.658	0.01
643.99	0.01
644.323	0.01
644.655	0.01
644.987	0.01
645.319	0.02
645.651	0.02
645.983	0.02
646.315	0.01
646.647	0.02
646.979	0.02
647.31	0.02
647.642	0.02
647.974	0.01
648.305	0.03
648.637	0.02
648.968	0.03
649.3	0.03
649.631	0.02
649.963	0.02
650.294	0.02
650.625	0.02
650.957	0.03
651.288	0.02
651.619	0.02
651.95	0.03
652.281	0.03
652.612	0.02
652.943	0.02
653.274	0.02
653.604	0.02
653.935	0.02
654.266	0.01
654.596	0.01
654.927	0.02
655.258	0.02
655.588	0.03
655.918	0.02
656.249	0.01
656.579	0.02
656.909	0.02
657.24	0.02
657.57	0.03
657.9	0.02
658.23	0.02
658.56	0.02
658.89	0.02
659.22	0.02
659.55	0.03
659.88	0.02
660.209	0.03
660.539	0.03
660.869	0.03
661.198	0.03
661.528	0.03
661.857	0.02
662.187	0.03
662.516	0.02
662.846	0.02
663.175	0.02
663.504	0.03
663.833	0.02
664.163	0.02
664.492	0.02
664.821	0.02
665.15	0.02
665.479	0.02
665.807	0.02
666.136	0.03
666.465	0.02
666.794	0.02
667.122	0.02
667.451	0.02
667.78	0.03
668.108	0.03
668.437	0.02
668.765	0.02
669.093	0.02
669.422	0.02
669.75	0.02
670.078	0.02
670.406	0.02
670.734	0.02
671.062	0.02
671.39	0.02
671.718	0.03
672.046	0.02
672.374	0.02
672.702	0.02
673.029	0.02
673.357	0.02
673.685	0.03
674.012	0.02
674.34	0.02
674.667	0.03
674.995	0.02
675.322	0.03
675.649	0.02
675.977	0.02
676.304	0.02
676.631	0.02
676.958	0.02
677.285	0.02
677.612	0.01
677.939	0.02
678.266	0.02
678.593	0.01
678.92	0.02
679.246	0.01
679.573	0.01
679.9	0.01
680.226	0.01
680.553	0.01
680.879	0.02
681.206	0.02
681.532	0.02
681.858	0.02
682.184	0.01
682.511	0.02
682.837	0.02
683.163	0.02
683.489	0.02
683.815	0.02
684.141	0.01
684.467	0.02
684.793	0.02
685.118	0.02
685.444	0.02
685.77	0.02
686.095	0.02
686.421	0.02
686.746	0.02
687.072	0.02
687.397	0.02
687.723	0.03
688.048	0.02
688.373	0.02
688.698	0.02
689.023	0.02
689.349	0.02
689.674	0.02
689.999	0.02
690.323	0.01
690.648	0.01
690.973	0.01
691.298	0.01
691.623	0.01
691.947	0.01
692.272	0.01
692.596	0.01
692.921	0.01
693.245	0.01
693.57	0.02
693.894	0.02
694.218	0.01
694.543	0.01
694.867	0.01
695.191	0.01
695.515	0.02
695.839	0
696.163	0.01
696.487	0.01
696.811	0.01
697.135	0.02
697.458	0.01
697.782	0.01
698.106	0.01
698.429	0.02
698.753	0.01
699.076	0.02
699.4	0.01
699.723	0.02
700.046	0.01
700.37	0.02
700.693	0.02
701.016	0.01
701.339	0.03
701.662	0.03
701.985	0.02
702.308	0.02
702.631	0.02
702.954	0.02
703.277	0.03
703.599	0.02
703.922	0.02
704.245	0.02
704.567	0.01
704.89	0.02
705.212	0.02
705.535	0.02
705.857	0.02
706.179	0.01
706.502	0.01
706.824	0.02
707.146	0.01
707.468	0.02
707.79	0.01
708.112	0.02
708.434	0.02
708.756	0.01
709.078	0.02
709.399	0.01
709.721	0.01
710.043	0.02
710.364	0.02
710.686	0.02
711.007	0.02
711.329	0.02
711.65	0.02
711.972	0.02
712.293	0.02
712.614	0.02
712.935	0.01
713.256	0.02
713.577	0.03
713.898	0.02
714.219	0.02
714.54	0.02
714.861	0.01
715.182	0.02
715.503	0.01
715.823	0.02
716.144	0.01
716.464	0.02
716.785	0.01
717.105	0.01
717.426	0.02
717.746	0.01
718.066	0.01
718.387	0.02
718.707	0.01
719.027	0.02
719.347	0.01
719.667	0.01
719.987	0.01
720.307	0.01
720.627	0
720.947	0
721.266	0
721.586	0.01
721.906	0
722.225	0
722.545	0.01
722.864	0
723.184	0.01
723.503	0.01
723.823	0.01
724.142	0
724.461	0.01
724.78	0
725.099	0.01
725.418	0.01
725.737	0.01
726.056	0.01
726.375	0.01
726.694	0.01
727.013	0.01
