Data from 12-12-AQDScycling_Absorbance__425__00425.txt Node

Date: Tue Dec 12 12:42:59 EST 2023
User: kyuminlee
Spectrometer: FLMS00943
Trigger mode: 0
Integration Time (sec): 1.000000E-1
Scans to average: 1
Electric dark correction enabled: true
Nonlinearity correction enabled: false
Boxcar width: 0
XAxis mode: Wavelengths
Number of Pixels in Spectrum: 2048
>>>>>Begin Spectral Data<<<<<
179.651	-0
180.037	-0
180.424	-0
180.81	-0.26
181.197	0.46
181.583	0.5
181.97	-0.15
182.356	-0
182.743	1.18
183.129	-0.12
183.515	0.08
183.901	-2.24
184.288	0.43
184.674	-0
185.06	-0
185.446	-0
185.832	-0
186.218	0.18
186.604	0.55
186.99	-0
187.376	0.03
187.762	0.14
188.148	-0
188.534	-0.25
188.92	0.02
189.305	0.18
189.691	0.3
190.077	0.14
190.463	0.11
190.848	0.08
191.234	-0.02
191.619	0.23
192.005	0.11
192.391	0.25
192.776	0.11
193.161	0.17
193.547	0.11
193.932	0.1
194.318	0.13
194.703	0.14
195.088	0.27
195.473	0.16
195.859	0.13
196.244	0.21
196.629	0.11
197.014	0.03
197.399	0.22
197.784	0.11
198.169	0.26
198.554	0.22
198.939	0.16
199.324	0.17
199.709	0.15
200.094	0.13
200.478	0.21
200.863	0.13
201.248	0.16
201.633	0.24
202.017	0.17
202.402	0.26
202.787	0.14
203.171	0.15
203.556	0.17
203.94	0.15
204.325	0.26
204.709	0.16
205.093	0.09
205.478	0.15
205.862	0.27
206.246	0.22
206.631	0.15
207.015	0.16
207.399	0.19
207.783	0.14
208.167	0.16
208.551	0.25
208.935	0.21
209.319	0.17
209.703	0.19
210.087	0.3
210.471	0.06
210.855	0.11
211.239	0.21
211.623	0.47
212.007	0.6
212.39	0.26
212.774	0.26
213.158	0.15
213.541	0.19
213.925	0.16
214.309	0.31
214.692	0.29
215.076	0.35
215.459	0.19
215.842	0.17
216.226	0.33
216.609	0.38
216.993	0.17
217.376	0.32
217.759	0.28
218.142	0.29
218.525	0.58
218.909	0.39
219.292	0.36
219.675	0.52
220.058	0.47
220.441	0.62
220.824	0.5
221.207	0.77
221.59	0.43
221.973	0.6
222.355	0.61
222.738	0.8
223.121	0.53
223.504	0.68
223.886	0.7
224.269	0.67
224.652	0.67
225.034	0.86
225.417	0.71
225.799	0.64
226.182	0.91
226.564	0.81
226.947	0.78
227.329	0.83
227.711	1.08
228.094	0.8
228.476	0.76
228.858	0.84
229.24	0.86
229.623	1.09
230.005	0.88
230.387	0.93
230.769	0.86
231.151	0.9
231.533	1.01
231.915	0.92
232.297	1.2
232.679	1.15
233.061	0.99
233.442	1.1
233.824	1.09
234.206	1.26
234.588	1.05
234.969	1.06
235.351	1.03
235.733	1.18
236.114	1.1
236.496	1.24
236.877	1.23
237.259	1.19
237.64	1.1
238.022	1.07
238.403	0.98
238.784	1.07
239.165	1.08
239.547	1.1
239.928	1.25
240.309	1.06
240.69	1.11
241.071	1.23
241.452	1.22
241.834	1.07
242.215	1.06
242.595	1.02
242.976	1.33
243.357	1.19
243.738	1.14
244.119	1.48
244.5	1.16
244.881	1.21
245.261	1.38
245.642	1.17
246.023	1.17
246.403	1.21
246.784	1.28
247.164	1.26
247.545	1.22
247.925	1.27
248.306	1.26
248.686	1.32
249.067	1.49
249.447	1.33
249.827	1.58
250.207	1.44
250.588	1.5
250.968	1.41
251.348	1.34
251.728	1.42
252.108	1.41
252.488	1.32
252.868	1.42
253.248	1.3
253.628	1.56
254.008	1.57
254.388	1.31
254.768	1.35
255.147	1.44
255.527	1.55
255.907	1.41
256.287	1.37
256.666	1.51
257.046	1.69
257.425	1.48
257.805	1.41
258.184	1.37
258.564	1.49
258.943	1.51
259.323	1.49
259.702	1.64
260.081	1.48
260.461	1.49
260.84	1.55
261.219	1.64
261.598	1.62
261.977	1.51
262.356	1.45
262.736	1.57
263.115	1.45
263.494	1.46
263.873	1.54
264.251	1.53
264.63	1.76
265.009	1.47
265.388	1.43
265.767	1.33
266.145	1.41
266.524	1.58
266.903	1.49
267.281	1.24
267.66	1.69
268.039	1.42
268.417	1.43
268.796	1.47
269.174	1.41
269.552	1.39
269.931	1.59
270.309	1.4
270.687	1.51
271.066	1.69
271.444	1.4
271.822	1.62
272.2	1.42
272.578	1.38
272.956	1.63
273.334	1.46
273.712	1.39
274.09	1.53
274.468	1.48
274.846	1.37
275.224	1.42
275.602	1.4
275.98	1.46
276.357	1.45
276.735	1.54
277.113	1.39
277.49	1.37
277.868	1.29
278.246	1.48
278.623	1.45
279.001	1.45
279.378	1.36
279.756	1.55
280.133	1.66
280.51	1.35
280.888	1.47
281.265	1.35
281.642	1.51
282.019	1.77
282.396	1.47
282.773	1.46
283.151	1.42
283.528	1.54
283.905	1.56
284.282	1.82
284.659	1.57
285.035	1.34
285.412	1.37
285.789	1.49
286.166	1.47
286.543	1.57
286.919	1.49
287.296	1.35
287.673	1.76
288.049	1.54
288.426	1.46
288.802	1.56
289.179	1.53
289.555	1.61
289.932	1.44
290.308	1.39
290.684	1.48
291.061	1.5
291.437	1.49
291.813	1.5
292.189	1.28
292.565	1.34
292.942	1.38
293.318	1.41
293.694	1.4
294.07	1.43
294.446	1.44
294.822	1.58
295.197	1.44
295.573	1.53
295.949	1.54
296.325	1.57
296.701	1.66
297.076	1.88
297.452	1.56
297.828	1.44
298.203	1.74
298.579	1.55
298.954	1.5
299.33	1.41
299.705	1.46
300.081	1.64
300.456	1.49
300.831	1.43
301.206	1.47
301.582	1.59
301.957	1.38
302.332	1.51
302.707	1.42
303.082	1.4
303.457	1.46
303.832	1.57
304.207	1.46
304.582	1.47
304.957	1.45
305.332	1.56
305.707	1.54
306.082	1.57
306.456	1.47
306.831	1.42
307.206	1.55
307.58	1.4
307.955	1.46
308.33	1.53
308.704	1.5
309.079	1.45
309.453	1.6
309.828	1.41
310.202	1.42
310.576	1.39
310.951	1.4
311.325	1.45
311.699	1.39
312.073	1.36
312.447	1.4
312.821	1.41
313.196	1.63
313.57	1.41
313.944	1.32
314.317	1.41
314.691	1.46
315.065	1.44
315.439	1.5
315.813	1.52
316.187	1.54
316.56	1.65
316.934	1.47
317.308	1.39
317.681	1.47
318.055	1.4
318.428	1.63
318.802	1.48
319.175	1.53
319.549	1.52
319.922	1.29
320.295	1.44
320.669	1.56
321.042	1.5
321.415	1.83
321.788	1.54
322.162	1.53
322.535	1.57
322.908	1.5
323.281	1.63
323.654	1.8
324.027	1.57
324.4	1.5
324.773	1.8
325.145	1.69
325.518	1.47
325.891	1.5
326.264	1.46
326.636	1.42
327.009	1.54
327.382	1.43
327.754	1.67
328.127	1.45
328.499	1.51
328.872	1.59
329.244	1.5
329.616	1.61
329.989	1.39
330.361	1.58
330.733	1.48
331.106	1.52
331.478	1.49
331.85	1.41
332.222	1.44
332.594	1.56
332.966	1.44
333.338	1.72
333.71	1.5
334.082	1.57
334.454	1.54
334.826	1.51
335.197	1.69
335.569	1.59
335.941	1.42
336.312	1.59
336.684	1.49
337.056	1.46
337.427	1.7
337.799	1.54
338.17	1.67
338.542	1.4
338.913	1.58
339.284	1.6
339.656	1.54
340.027	1.51
340.398	1.49
340.769	1.5
341.141	1.76
341.512	1.52
341.883	1.55
342.254	1.48
342.625	1.55
342.996	1.54
343.367	1.56
343.738	1.65
344.108	1.48
344.479	1.64
344.85	1.43
345.221	1.68
345.591	1.4
345.962	1.48
346.333	1.37
346.703	1.27
347.074	1.46
347.444	1.26
347.815	1.39
348.185	1.42
348.556	1.41
348.926	1.37
349.296	1.53
349.666	1.35
350.037	1.3
350.407	1.31
350.777	1.36
351.147	1.34
351.517	1.34
351.887	1.32
352.257	1.4
352.627	1.26
352.997	1.33
353.367	1.37
353.737	1.48
354.106	1.32
354.476	1.3
354.846	1.4
355.216	1.41
355.585	1.44
355.955	1.39
356.324	1.44
356.694	1.37
357.063	1.35
357.433	1.3
357.802	1.37
358.171	1.34
358.541	1.32
358.91	1.44
359.279	1.4
359.648	1.36
360.017	1.38
360.387	1.35
360.756	1.32
361.125	1.4
361.494	1.48
361.863	1.32
362.231	1.25
362.6	1.31
362.969	1.4
363.338	1.29
363.707	1.37
364.075	1.3
364.444	1.29
364.813	1.28
365.181	1.29
365.55	1.28
365.918	1.33
366.287	1.29
366.655	1.37
367.024	1.32
367.392	1.41
367.76	1.29
368.128	1.33
368.497	1.35
368.865	1.33
369.233	1.28
369.601	1.27
369.969	1.28
370.337	1.3
370.705	1.26
371.073	1.4
371.441	1.33
371.809	1.27
372.177	1.3
372.544	1.34
372.912	1.35
373.28	1.3
373.647	1.34
374.015	1.38
374.383	1.44
374.75	1.44
375.118	1.31
375.485	1.33
375.853	1.37
376.22	1.25
376.587	1.29
376.955	1.38
377.322	1.36
377.689	1.35
378.056	1.37
378.423	1.28
378.79	1.36
379.157	1.34
379.524	1.37
379.891	1.38
380.258	1.38
380.625	1.35
380.992	1.41
381.359	1.32
381.726	1.41
382.092	1.41
382.459	1.34
382.826	1.45
383.192	1.5
383.559	1.43
383.925	1.46
384.292	1.38
384.658	1.5
385.025	1.49
385.391	1.55
385.757	1.45
386.123	1.47
386.49	1.5
386.856	1.5
387.222	1.47
387.588	1.43
387.954	1.67
388.32	1.49
388.686	1.42
389.052	1.41
389.418	1.48
389.784	1.43
390.15	1.58
390.515	1.33
390.881	1.62
391.247	1.38
391.613	1.65
391.978	1.43
392.344	1.54
392.709	1.57
393.075	1.42
393.44	1.48
393.806	1.5
394.171	1.44
394.536	1.52
394.902	1.41
395.267	1.46
395.632	1.33
395.997	1.4
396.362	1.45
396.727	1.48
397.092	1.46
397.457	1.45
397.822	1.47
398.187	1.42
398.552	1.33
398.917	1.43
399.282	1.37
399.646	1.41
400.011	1.52
400.376	1.33
400.74	1.41
401.105	1.39
401.47	1.52
401.834	1.38
402.199	1.37
402.563	1.43
402.927	1.41
403.292	1.57
403.656	1.34
404.02	1.43
404.384	1.5
404.749	1.36
405.113	1.4
405.477	1.36
405.841	1.32
406.205	1.33
406.569	1.32
406.933	1.34
407.296	1.37
407.66	1.28
408.024	1.3
408.388	1.3
408.752	1.32
409.115	1.28
409.479	1.3
409.842	1.21
410.206	1.19
410.569	1.24
410.933	1.21
411.296	1.17
411.66	1.18
412.023	1.17
412.386	1.2
412.749	1.13
413.113	1.26
413.476	1.16
413.839	1.14
414.202	1.23
414.565	1.13
414.928	1.15
415.291	1.11
415.654	1.17
416.017	1.18
416.38	1.14
416.742	1.1
417.105	1.13
417.468	1.12
417.83	1.13
418.193	1.14
418.556	1.1
418.918	1.14
419.281	1.13
419.643	1.15
420.005	1.09
420.368	1.14
420.73	1.1
421.092	1.17
421.455	1.13
421.817	1.07
422.179	1.07
422.541	1.08
422.903	1.16
423.265	1.1
423.627	1.11
423.989	1.08
424.351	1.05
424.713	1.07
425.075	1.06
425.436	1.04
425.798	1.03
426.16	1.07
426.521	1.03
426.883	1.05
427.245	1.07
427.606	1.04
427.967	1.02
428.329	1.06
428.69	1.1
429.052	1.01
429.413	1.05
429.774	1.04
430.135	1.05
430.497	1.04
430.858	1.02
431.219	1.03
431.58	0.98
431.941	1.01
432.302	0.98
432.663	1.03
433.024	1.04
433.384	1.06
433.745	0.97
434.106	1.01
434.467	1
434.827	1
435.188	0.98
435.548	0.98
435.909	0.96
436.269	0.95
436.63	0.94
436.99	1
437.351	0.93
437.711	0.94
438.071	0.95
438.431	0.94
438.792	0.93
439.152	0.95
439.512	0.91
439.872	0.93
440.232	0.95
440.592	0.91
440.952	0.92
441.312	0.9
441.671	0.9
442.031	0.87
442.391	0.88
442.751	0.9
443.11	0.89
443.47	0.85
443.83	0.87
444.189	0.87
444.549	0.87
444.908	0.86
445.267	0.85
445.627	0.85
445.986	0.82
446.345	0.8
446.705	0.83
447.064	0.81
447.423	0.82
447.782	0.83
448.141	0.8
448.5	0.79
448.859	0.81
449.218	0.79
449.577	0.79
449.936	0.78
450.295	0.79
450.653	0.77
451.012	0.77
451.371	0.79
451.729	0.76
452.088	0.76
452.447	0.77
452.805	0.76
453.163	0.75
453.522	0.75
453.88	0.73
454.239	0.73
454.597	0.71
454.955	0.7
455.313	0.71
455.671	0.71
456.029	0.71
456.388	0.67
456.746	0.7
457.104	0.68
457.461	0.67
457.819	0.66
458.177	0.66
458.535	0.64
458.893	0.64
459.25	0.64
459.608	0.62
459.966	0.61
460.323	0.61
460.681	0.59
461.038	0.6
461.396	0.59
461.753	0.58
462.111	0.57
462.468	0.57
462.825	0.57
463.182	0.55
463.54	0.54
463.897	0.55
464.254	0.54
464.611	0.53
464.968	0.53
465.325	0.53
465.682	0.52
466.039	0.51
466.395	0.51
466.752	0.5
467.109	0.49
467.466	0.48
467.822	0.49
468.179	0.47
468.535	0.47
468.892	0.46
469.248	0.46
469.605	0.44
469.961	0.45
470.318	0.45
470.674	0.44
471.03	0.43
471.386	0.43
471.743	0.42
472.099	0.42
472.455	0.42
472.811	0.4
473.167	0.4
473.523	0.38
473.879	0.39
474.235	0.38
474.59	0.38
474.946	0.37
475.302	0.37
475.657	0.36
476.013	0.35
476.369	0.35
476.724	0.36
477.08	0.35
477.435	0.33
477.791	0.33
478.146	0.33
478.501	0.33
478.857	0.33
479.212	0.33
479.567	0.32
479.922	0.31
480.277	0.31
480.632	0.31
480.987	0.3
481.342	0.3
481.697	0.29
482.052	0.28
482.407	0.28
482.762	0.28
483.116	0.28
483.471	0.28
483.826	0.27
484.18	0.27
484.535	0.26
484.89	0.26
485.244	0.27
485.598	0.26
485.953	0.25
486.307	0.25
486.661	0.25
487.016	0.25
487.37	0.24
487.724	0.25
488.078	0.23
488.432	0.23
488.786	0.24
489.14	0.23
489.494	0.23
489.848	0.23
490.202	0.22
490.556	0.22
490.91	0.22
491.263	0.21
491.617	0.21
491.971	0.21
492.324	0.21
492.678	0.22
493.031	0.21
493.385	0.21
493.738	0.2
494.091	0.2
494.445	0.21
494.798	0.2
495.151	0.21
495.504	0.2
495.857	0.19
496.21	0.2
496.564	0.19
496.916	0.19
497.269	0.19
497.622	0.19
497.975	0.19
498.328	0.19
498.681	0.19
499.033	0.19
499.386	0.19
499.739	0.18
500.091	0.18
500.444	0.18
500.796	0.18
501.149	0.18
501.501	0.19
501.854	0.18
502.206	0.18
502.558	0.18
502.91	0.17
503.263	0.17
503.615	0.18
503.967	0.17
504.319	0.18
504.671	0.18
505.023	0.17
505.375	0.16
505.726	0.17
506.078	0.17
506.43	0.17
506.782	0.16
507.133	0.16
507.485	0.17
507.837	0.17
508.188	0.17
508.54	0.17
508.891	0.17
509.243	0.16
509.594	0.17
509.945	0.17
510.296	0.16
510.648	0.17
510.999	0.16
511.35	0.16
511.701	0.16
512.052	0.17
512.403	0.16
512.754	0.17
513.105	0.16
513.456	0.16
513.807	0.16
514.157	0.16
514.508	0.16
514.859	0.15
515.209	0.16
515.56	0.17
515.91	0.16
516.261	0.17
516.611	0.15
516.962	0.16
517.312	0.16
517.662	0.16
518.013	0.16
518.363	0.16
518.713	0.16
519.063	0.16
519.413	0.16
519.763	0.16
520.113	0.16
520.463	0.16
520.813	0.17
521.163	0.16
521.512	0.16
521.862	0.16
522.212	0.17
522.562	0.16
522.911	0.17
523.261	0.16
523.61	0.16
523.96	0.16
524.309	0.16
524.658	0.17
525.008	0.16
525.357	0.16
525.706	0.17
526.056	0.16
526.405	0.16
526.754	0.16
527.103	0.16
527.452	0.17
527.801	0.17
528.15	0.17
528.499	0.16
528.847	0.17
529.196	0.17
529.545	0.17
529.893	0.17
530.242	0.17
530.591	0.17
530.939	0.17
531.288	0.17
531.636	0.17
531.985	0.17
532.333	0.17
532.681	0.17
533.029	0.17
533.378	0.17
533.726	0.17
534.074	0.18
534.422	0.17
534.77	0.17
535.118	0.17
535.466	0.18
535.814	0.17
536.162	0.17
536.509	0.18
536.857	0.17
537.205	0.18
537.552	0.18
537.9	0.17
538.248	0.16
538.595	0.18
538.943	0.17
539.29	0.17
539.637	0.17
539.985	0.18
540.332	0.18
540.679	0.17
541.026	0.17
541.373	0.18
541.721	0.17
542.068	0.17
542.415	0.17
542.762	0.16
543.108	0.15
543.455	0.16
543.802	0.16
544.149	0.16
544.496	0.17
544.842	0.16
545.189	0.16
545.535	0.16
545.882	0.17
546.228	0.16
546.575	0.16
546.921	0.16
547.267	0.16
547.614	0.16
547.96	0.17
548.306	0.16
548.652	0.16
548.998	0.17
549.344	0.17
549.69	0.16
550.036	0.16
550.382	0.17
550.728	0.17
551.074	0.17
551.42	0.17
551.765	0.17
552.111	0.18
552.457	0.18
552.802	0.17
553.148	0.16
553.493	0.17
553.839	0.17
554.184	0.17
554.529	0.17
554.875	0.18
555.22	0.18
555.565	0.17
555.91	0.17
556.255	0.18
556.6	0.17
556.945	0.17
557.29	0.17
557.635	0.17
557.98	0.17
558.325	0.17
558.67	0.17
559.014	0.18
559.359	0.18
559.704	0.17
560.048	0.17
560.393	0.18
560.737	0.17
561.082	0.18
561.426	0.17
561.77	0.17
562.115	0.17
562.459	0.18
562.803	0.17
563.147	0.17
563.491	0.18
563.835	0.18
564.179	0.18
564.523	0.17
564.867	0.17
565.211	0.17
565.555	0.18
565.899	0.17
566.242	0.17
566.586	0.16
566.93	0.17
567.273	0.18
567.617	0.18
567.96	0.18
568.304	0.18
568.647	0.17
568.99	0.18
569.334	0.18
569.677	0.17
570.02	0.19
570.363	0.18
570.706	0.17
571.049	0.18
571.392	0.18
571.735	0.18
572.078	0.18
572.421	0.18
572.764	0.18
573.106	0.18
573.449	0.17
573.792	0.18
574.134	0.18
574.477	0.18
574.819	0.17
575.162	0.17
575.504	0.17
575.847	0.18
576.189	0.18
576.531	0.18
576.873	0.17
577.215	0.18
577.558	0.18
577.9	0.17
578.242	0.17
578.584	0.18
578.926	0.17
579.267	0.17
579.609	0.18
579.951	0.17
580.293	0.18
580.634	0.17
580.976	0.18
581.318	0.17
581.659	0.17
582.001	0.18
582.342	0.17
582.683	0.18
583.025	0.16
583.366	0.17
583.707	0.17
584.049	0.17
584.39	0.17
584.731	0.17
585.072	0.17
585.413	0.18
585.754	0.18
586.095	0.17
586.435	0.18
586.776	0.18
587.117	0.17
587.458	0.17
587.798	0.17
588.139	0.17
588.48	0.17
588.82	0.17
589.161	0.17
589.501	0.17
589.841	0.17
590.182	0.17
590.522	0.17
590.862	0.18
591.202	0.17
591.542	0.17
591.882	0.17
592.222	0.17
592.562	0.17
592.902	0.17
593.242	0.16
593.582	0.18
593.922	0.17
594.261	0.17
594.601	0.18
594.941	0.17
595.28	0.17
595.62	0.18
595.959	0.16
596.299	0.17
596.638	0.17
596.977	0.17
597.317	0.18
597.656	0.17
597.995	0.18
598.334	0.18
598.673	0.18
599.012	0.18
599.351	0.18
599.69	0.17
600.029	0.18
600.368	0.18
600.707	0.18
601.046	0.17
601.384	0.18
601.723	0.18
602.061	0.17
602.4	0.18
602.738	0.17
603.077	0.18
603.415	0.17
603.754	0.17
604.092	0.17
604.43	0.17
604.768	0.17
605.107	0.17
605.445	0.17
605.783	0.16
606.121	0.16
606.459	0.17
606.796	0.17
607.134	0.16
607.472	0.17
607.81	0.17
608.148	0.17
608.485	0.17
608.823	0.17
609.16	0.17
609.498	0.17
609.835	0.16
610.173	0.17
610.51	0.18
610.847	0.17
611.185	0.17
611.522	0.17
611.859	0.18
612.196	0.17
612.533	0.18
612.87	0.18
613.207	0.18
613.544	0.18
613.881	0.19
614.217	0.18
614.554	0.18
614.891	0.18
615.228	0.17
615.564	0.18
615.901	0.18
616.237	0.17
616.574	0.17
616.91	0.18
617.246	0.18
617.583	0.17
617.919	0.18
618.255	0.19
618.591	0.17
618.927	0.18
619.263	0.18
619.599	0.18
619.935	0.18
620.271	0.18
620.607	0.18
620.943	0.17
621.279	0.18
621.614	0.18
621.95	0.17
622.286	0.17
622.621	0.16
622.957	0.18
623.292	0.17
623.627	0.17
623.963	0.16
624.298	0.17
624.633	0.16
624.968	0.16
625.304	0.16
625.639	0.16
625.974	0.16
626.309	0.16
626.644	0.16
626.979	0.16
627.313	0.16
627.648	0.16
627.983	0.17
628.318	0.16
628.652	0.15
628.987	0.16
629.321	0.16
629.656	0.15
629.99	0.15
630.325	0.15
630.659	0.16
630.993	0.16
631.327	0.16
631.662	0.15
631.996	0.15
632.33	0.15
632.664	0.16
632.998	0.15
633.332	0.15
633.666	0.16
633.999	0.16
634.333	0.15
634.667	0.15
635.001	0.14
635.334	0.14
635.668	0.15
636.001	0.15
636.335	0.15
636.668	0.15
637.001	0.15
637.335	0.15
637.668	0.15
638.001	0.15
638.334	0.15
638.668	0.15
639.001	0.14
639.334	0.14
639.667	0.14
639.999	0.14
640.332	0.15
640.665	0.14
640.998	0.14
641.331	0.15
641.663	0.14
641.996	0.14
642.328	0.15
642.661	0.15
642.993	0.14
643.326	0.15
643.658	0.14
643.99	0.14
644.323	0.14
644.655	0.14
644.987	0.14
645.319	0.14
645.651	0.14
645.983	0.14
646.315	0.14
646.647	0.14
646.979	0.14
647.31	0.15
647.642	0.14
647.974	0.14
648.305	0.15
648.637	0.14
648.968	0.15
649.3	0.14
649.631	0.15
649.963	0.13
650.294	0.14
650.625	0.15
650.957	0.14
651.288	0.14
651.619	0.14
651.95	0.15
652.281	0.15
652.612	0.15
652.943	0.15
653.274	0.15
653.604	0.14
653.935	0.14
654.266	0.14
654.596	0.14
654.927	0.14
655.258	0.15
655.588	0.14
655.918	0.14
656.249	0.12
656.579	0.14
656.909	0.14
657.24	0.14
657.57	0.15
657.9	0.14
658.23	0.14
658.56	0.15
658.89	0.14
659.22	0.14
659.55	0.14
659.88	0.15
660.209	0.15
660.539	0.15
660.869	0.14
661.198	0.15
661.528	0.15
661.857	0.14
662.187	0.14
662.516	0.15
662.846	0.14
663.175	0.14
663.504	0.14
663.833	0.15
664.163	0.14
664.492	0.14
664.821	0.14
665.15	0.14
665.479	0.14
665.807	0.14
666.136	0.14
666.465	0.14
666.794	0.14
667.122	0.13
667.451	0.13
667.78	0.14
668.108	0.14
668.437	0.13
668.765	0.14
669.093	0.14
669.422	0.13
669.75	0.14
670.078	0.13
670.406	0.13
670.734	0.13
671.062	0.13
671.39	0.13
671.718	0.13
672.046	0.13
672.374	0.13
672.702	0.13
673.029	0.13
673.357	0.13
673.685	0.14
674.012	0.13
674.34	0.12
674.667	0.14
674.995	0.14
675.322	0.13
675.649	0.13
675.977	0.13
676.304	0.13
676.631	0.13
676.958	0.13
677.285	0.12
677.612	0.12
677.939	0.12
678.266	0.13
678.593	0.13
678.92	0.13
679.246	0.12
679.573	0.12
679.9	0.13
680.226	0.13
680.553	0.12
680.879	0.13
681.206	0.13
681.532	0.13
681.858	0.13
682.184	0.12
682.511	0.12
682.837	0.12
683.163	0.13
683.489	0.13
683.815	0.12
684.141	0.13
684.467	0.12
684.793	0.11
685.118	0.11
685.444	0.12
685.77	0.11
686.095	0.12
686.421	0.12
686.746	0.12
687.072	0.12
687.397	0.12
687.723	0.12
688.048	0.13
688.373	0.12
688.698	0.13
689.023	0.12
689.349	0.13
689.674	0.12
689.999	0.12
690.323	0.12
690.648	0.11
690.973	0.11
691.298	0.12
691.623	0.12
691.947	0.13
692.272	0.12
692.596	0.13
692.921	0.12
693.245	0.11
693.57	0.12
693.894	0.12
694.218	0.12
694.543	0.11
694.867	0.11
695.191	0.11
695.515	0.11
695.839	0.11
696.163	0.11
696.487	0.11
696.811	0.11
697.135	0.11
697.458	0.11
697.782	0.12
698.106	0.11
698.429	0.12
698.753	0.11
699.076	0.11
699.4	0.11
699.723	0.11
700.046	0.11
700.37	0.11
700.693	0.11
701.016	0.1
701.339	0.12
701.662	0.11
701.985	0.11
702.308	0.11
702.631	0.11
702.954	0.11
703.277	0.11
703.599	0.11
703.922	0.12
704.245	0.1
704.567	0.1
704.89	0.1
705.212	0.1
705.535	0.1
705.857	0.1
706.179	0.09
706.502	0.1
706.824	0.09
707.146	0.1
707.468	0.09
707.79	0.1
708.112	0.1
708.434	0.1
708.756	0.1
709.078	0.1
709.399	0.1
709.721	0.1
710.043	0.1
710.364	0.1
710.686	0.1
711.007	0.09
711.329	0.1
711.65	0.1
711.972	0.1
712.293	0.1
712.614	0.1
712.935	0.1
713.256	0.1
713.577	0.1
713.898	0.1
714.219	0.09
714.54	0.09
714.861	0.09
715.182	0.09
715.503	0.1
715.823	0.1
716.144	0.09
716.464	0.08
716.785	0.08
717.105	0.09
717.426	0.09
717.746	0.09
718.066	0.08
718.387	0.08
718.707	0.08
719.027	0.08
719.347	0.07
719.667	0.09
719.987	0.07
720.307	0.08
720.627	0.08
720.947	0.08
721.266	0.09
721.586	0.08
721.906	0.08
722.225	0.08
722.545	0.08
722.864	0.08
723.184	0.09
723.503	0.08
723.823	0.08
