Data from 12-12-AQDScycling_Absorbance__723__00723.txt Node

Date: Tue Dec 12 13:57:29 EST 2023
User: kyuminlee
Spectrometer: FLMS00943
Trigger mode: 0
Integration Time (sec): 1.000000E-1
Scans to average: 1
Electric dark correction enabled: true
Nonlinearity correction enabled: false
Boxcar width: 0
XAxis mode: Wavelengths
Number of Pixels in Spectrum: 2048
>>>>>Begin Spectral Data<<<<<
179.651	-0
180.037	-0
180.424	-0
180.81	-0
181.197	0.53
181.583	-0
181.97	-0.44
182.356	-0
182.743	-0.3
183.129	0.24
183.515	-0
183.901	-2.21
184.288	0.38
184.674	0.3
185.06	1.22
185.446	-0
185.832	-0
186.218	-0.11
186.604	0.65
186.99	-0
187.376	-0
187.762	-0
188.148	0.21
188.534	-0.38
188.92	0
189.305	0.03
189.691	0.28
190.077	0.19
190.463	-0.02
190.848	0.05
191.234	0.01
191.619	0.01
192.005	0.05
192.391	0.02
192.776	0.06
193.161	0.1
193.547	0.19
193.932	-0.01
194.318	0.05
194.703	0.07
195.088	0.53
195.473	0.26
195.859	0.18
196.244	0.11
196.629	0.07
197.014	0.03
197.399	0.14
197.784	0.01
198.169	0.16
198.554	0.14
198.939	0.13
199.324	0.12
199.709	-0
200.094	0.06
200.478	0.03
200.863	0.16
201.248	0.12
201.633	0.2
202.017	0.2
202.402	0.15
202.787	0.11
203.171	0.04
203.556	0.19
203.94	0.22
204.325	0.2
204.709	0.11
205.093	0.05
205.478	0.16
205.862	0.16
206.246	0.16
206.631	0.09
207.015	0.09
207.399	0.11
207.783	0.2
208.167	0.05
208.551	0.26
208.935	0.17
209.319	0.08
209.703	0.18
210.087	0.29
210.471	0.08
210.855	0.1
211.239	0.16
211.623	0.21
212.007	0.19
212.39	0.38
212.774	0.09
213.158	0.13
213.541	0.12
213.925	0.18
214.309	0.23
214.692	0.23
215.076	0.15
215.459	0.19
215.842	0.15
216.226	0.22
216.609	0.23
216.993	0.25
217.376	0.3
217.759	0.17
218.142	0.24
218.525	0.38
218.909	0.25
219.292	0.37
219.675	0.37
220.058	0.36
220.441	0.46
220.824	0.43
221.207	0.58
221.59	0.46
221.973	0.45
222.355	0.66
222.738	0.73
223.121	0.49
223.504	0.53
223.886	0.67
224.269	0.59
224.652	0.71
225.034	0.79
225.417	0.66
225.799	0.76
226.182	0.76
226.564	0.77
226.947	0.8
227.329	0.77
227.711	0.75
228.094	1.16
228.476	0.98
228.858	0.69
229.24	0.78
229.623	0.84
230.005	0.78
230.387	0.86
230.769	0.82
231.151	0.99
231.533	0.91
231.915	1.01
232.297	0.9
232.679	0.98
233.061	1.03
233.442	0.81
233.824	1
234.206	0.99
234.588	0.94
234.969	1.11
235.351	0.93
235.733	0.93
236.114	1.06
236.496	1.01
236.877	0.97
237.259	1.03
237.64	0.98
238.022	0.95
238.403	0.97
238.784	0.99
239.165	0.99
239.547	1.06
239.928	1.15
240.309	1.07
240.69	0.95
241.071	1.04
241.452	1.13
241.834	1.04
242.215	1.07
242.595	1.05
242.976	1.02
243.357	1.13
243.738	1.01
244.119	1.21
244.5	1.14
244.881	1.24
245.261	1.09
245.642	1.27
246.023	1.16
246.403	1.17
246.784	1.14
247.164	1.28
247.545	1.24
247.925	1.3
248.306	1.19
248.686	1.34
249.067	1.36
249.447	1.4
249.827	1.43
250.207	1.28
250.588	1.31
250.968	1.38
251.348	1.27
251.728	1.33
252.108	1.43
252.488	1.36
252.868	1.45
253.248	1.28
253.628	1.35
254.008	1.68
254.388	1.25
254.768	1.34
255.147	1.32
255.527	1.41
255.907	1.27
256.287	1.26
256.666	1.47
257.046	1.44
257.425	1.66
257.805	1.31
258.184	1.3
258.564	1.35
258.943	1.31
259.323	1.53
259.702	1.49
260.081	1.41
260.461	1.56
260.84	1.46
261.219	1.72
261.598	1.46
261.977	1.45
262.356	1.5
262.736	1.5
263.115	1.65
263.494	1.43
263.873	1.34
264.251	1.43
264.63	1.4
265.009	1.37
265.388	1.46
265.767	1.3
266.145	1.34
266.524	1.37
266.903	1.43
267.281	1.32
267.66	1.58
268.039	1.47
268.417	1.48
268.796	1.4
269.174	1.41
269.552	1.3
269.931	1.46
270.309	1.33
270.687	1.56
271.066	1.61
271.444	1.48
271.822	1.6
272.2	1.42
272.578	1.4
272.956	1.38
273.334	1.29
273.712	1.44
274.09	1.37
274.468	1.26
274.846	1.41
275.224	1.43
275.602	1.4
275.98	1.43
276.357	1.44
276.735	1.39
277.113	1.37
277.49	1.39
277.868	1.33
278.246	1.37
278.623	1.18
279.001	1.39
279.378	1.27
279.756	1.3
280.133	1.5
280.51	1.29
280.888	1.33
281.265	1.38
281.642	1.46
282.019	1.48
282.396	1.39
282.773	1.41
283.151	1.63
283.528	1.37
283.905	1.45
284.282	1.63
284.659	1.58
285.035	1.31
285.412	1.32
285.789	1.4
286.166	1.33
286.543	1.41
286.919	1.37
287.296	1.39
287.673	1.6
288.049	1.59
288.426	1.58
288.802	1.43
289.179	1.34
289.555	1.61
289.932	1.42
290.308	1.37
290.684	1.32
291.061	1.37
291.437	1.53
291.813	1.34
292.189	1.35
292.565	1.21
292.942	1.36
293.318	1.31
293.694	1.33
294.07	1.28
294.446	1.46
294.822	1.44
295.197	1.36
295.573	1.58
295.949	1.36
296.325	1.44
296.701	1.5
297.076	1.45
297.452	1.59
297.828	1.45
298.203	1.49
298.579	1.33
298.954	1.44
299.33	1.37
299.705	1.4
300.081	1.4
300.456	1.55
300.831	1.47
301.206	1.38
301.582	1.56
301.957	1.34
302.332	1.48
302.707	1.44
303.082	1.44
303.457	1.55
303.832	1.57
304.207	1.43
304.582	1.52
304.957	1.62
305.332	1.41
305.707	1.44
306.082	1.5
306.456	1.55
306.831	1.43
307.206	1.57
307.58	1.5
307.955	1.49
308.33	1.49
308.704	1.47
309.079	1.49
309.453	1.57
309.828	1.5
310.202	1.51
310.576	1.46
310.951	1.5
311.325	1.54
311.699	1.37
312.073	1.44
312.447	1.46
312.821	1.45
313.196	1.65
313.57	1.42
313.944	1.59
314.317	1.28
314.691	1.37
315.065	1.48
315.439	1.49
315.813	1.55
316.187	1.41
316.56	1.57
316.934	1.44
317.308	1.49
317.681	1.42
318.055	1.43
318.428	1.48
318.802	1.6
319.175	1.41
319.549	1.54
319.922	1.42
320.295	1.35
320.669	1.67
321.042	1.45
321.415	1.59
321.788	1.44
322.162	1.47
322.535	1.52
322.908	1.68
323.281	1.39
323.654	1.53
324.027	1.39
324.4	1.57
324.773	1.43
325.145	1.52
325.518	1.49
325.891	1.46
326.264	1.51
326.636	1.39
327.009	1.48
327.382	1.44
327.754	1.66
328.127	1.4
328.499	1.58
328.872	1.59
329.244	1.51
329.616	1.45
329.989	1.43
330.361	1.48
330.733	1.44
331.106	1.42
331.478	1.55
331.85	1.44
332.222	1.4
332.594	1.52
332.966	1.61
333.338	1.59
333.71	1.6
334.082	1.63
334.454	1.51
334.826	1.45
335.197	1.53
335.569	1.63
335.941	1.48
336.312	1.37
336.684	1.34
337.056	1.44
337.427	1.47
337.799	1.46
338.17	1.52
338.542	1.38
338.913	1.55
339.284	1.49
339.656	1.56
340.027	1.47
340.398	1.45
340.769	1.47
341.141	1.63
341.512	1.57
341.883	1.52
342.254	1.53
342.625	1.4
342.996	1.49
343.367	1.42
343.738	1.53
344.108	1.47
344.479	1.62
344.85	1.4
345.221	1.46
345.591	1.42
345.962	1.53
346.333	1.48
346.703	1.33
347.074	1.34
347.444	1.32
347.815	1.34
348.185	1.45
348.556	1.31
348.926	1.38
349.296	1.42
349.666	1.41
350.037	1.26
350.407	1.21
350.777	1.32
351.147	1.35
351.517	1.31
351.887	1.31
352.257	1.36
352.627	1.24
352.997	1.24
353.367	1.39
353.737	1.25
354.106	1.38
354.476	1.27
354.846	1.34
355.216	1.33
355.585	1.31
355.955	1.34
356.324	1.3
356.694	1.33
357.063	1.28
357.433	1.27
357.802	1.27
358.171	1.27
358.541	1.22
358.91	1.21
359.279	1.24
359.648	1.16
360.017	1.21
360.387	1.19
360.756	1.13
361.125	1.15
361.494	1.16
361.863	1.06
362.231	1.06
362.6	1.05
362.969	1.05
363.338	0.98
363.707	1.04
364.075	1.1
364.444	0.93
364.813	0.97
365.181	0.98
365.55	0.98
365.918	0.99
366.287	0.92
366.655	0.93
367.024	0.95
367.392	0.91
367.76	0.88
368.128	0.86
368.497	0.85
368.865	0.84
369.233	0.81
369.601	0.82
369.969	0.84
370.337	0.81
370.705	0.81
371.073	0.79
371.441	0.76
371.809	0.77
372.177	0.78
372.544	0.8
372.912	0.78
373.28	0.81
373.647	0.77
374.015	0.79
374.383	0.8
374.75	0.77
375.118	0.73
375.485	0.73
375.853	0.74
376.22	0.72
376.587	0.73
376.955	0.72
377.322	0.7
377.689	0.72
378.056	0.7
378.423	0.72
378.79	0.71
379.157	0.71
379.524	0.68
379.891	0.71
380.258	0.72
380.625	0.68
380.992	0.7
381.359	0.68
381.726	0.72
382.092	0.71
382.459	0.69
382.826	0.71
383.192	0.72
383.559	0.69
383.925	0.69
384.292	0.7
384.658	0.74
385.025	0.69
385.391	0.73
385.757	0.74
386.123	0.74
386.49	0.74
386.856	0.75
387.222	0.72
387.588	0.71
387.954	0.72
388.32	0.75
388.686	0.73
389.052	0.7
389.418	0.73
389.784	0.72
390.15	0.72
390.515	0.7
390.881	0.76
391.247	0.72
391.613	0.74
391.978	0.73
392.344	0.75
392.709	0.75
393.075	0.71
393.44	0.74
393.806	0.7
394.171	0.71
394.536	0.71
394.902	0.72
395.267	0.69
395.632	0.68
395.997	0.7
396.362	0.68
396.727	0.7
397.092	0.69
397.457	0.69
397.822	0.69
398.187	0.69
398.552	0.68
398.917	0.7
399.282	0.68
399.646	0.66
400.011	0.68
400.376	0.65
400.74	0.66
401.105	0.67
401.47	0.66
401.834	0.66
402.199	0.65
402.563	0.62
402.927	0.62
403.292	0.65
403.656	0.65
404.02	0.62
404.384	0.63
404.749	0.63
405.113	0.63
405.477	0.61
405.841	0.6
406.205	0.59
406.569	0.59
406.933	0.58
407.296	0.58
407.66	0.59
408.024	0.57
408.388	0.58
408.752	0.56
409.115	0.56
409.479	0.56
409.842	0.54
410.206	0.55
410.569	0.53
410.933	0.54
411.296	0.54
411.66	0.56
412.023	0.51
412.386	0.52
412.749	0.52
413.113	0.52
413.476	0.51
413.839	0.51
414.202	0.49
414.565	0.51
414.928	0.51
415.291	0.5
415.654	0.48
416.017	0.51
416.38	0.47
416.742	0.48
417.105	0.47
417.468	0.49
417.83	0.48
418.193	0.48
418.556	0.47
418.918	0.49
419.281	0.47
419.643	0.48
420.005	0.49
420.368	0.48
420.73	0.48
421.092	0.48
421.455	0.47
421.817	0.43
422.179	0.45
422.541	0.45
422.903	0.46
423.265	0.45
423.627	0.45
423.989	0.46
424.351	0.45
424.713	0.44
425.075	0.43
425.436	0.44
425.798	0.43
426.16	0.44
426.521	0.44
426.883	0.44
427.245	0.44
427.606	0.42
427.967	0.43
428.329	0.43
428.69	0.44
429.052	0.43
429.413	0.44
429.774	0.41
430.135	0.42
430.497	0.42
430.858	0.42
431.219	0.42
431.58	0.42
431.941	0.4
432.302	0.41
432.663	0.41
433.024	0.42
433.384	0.42
433.745	0.4
434.106	0.41
434.467	0.41
434.827	0.41
435.188	0.4
435.548	0.42
435.909	0.39
436.269	0.42
436.63	0.4
436.99	0.39
437.351	0.4
437.711	0.4
438.071	0.4
438.431	0.39
438.792	0.39
439.152	0.39
439.512	0.38
439.872	0.38
440.232	0.4
440.592	0.4
440.952	0.39
441.312	0.39
441.671	0.38
442.031	0.37
442.391	0.36
442.751	0.39
443.11	0.37
443.47	0.36
443.83	0.36
444.189	0.35
444.549	0.36
444.908	0.36
445.267	0.36
445.627	0.35
445.986	0.35
446.345	0.35
446.705	0.33
447.064	0.34
447.423	0.35
447.782	0.34
448.141	0.33
448.5	0.33
448.859	0.34
449.218	0.33
449.577	0.34
449.936	0.34
450.295	0.33
450.653	0.33
451.012	0.33
451.371	0.34
451.729	0.32
452.088	0.33
452.447	0.33
452.805	0.33
453.163	0.32
453.522	0.33
453.88	0.31
454.239	0.32
454.597	0.31
454.955	0.3
455.313	0.3
455.671	0.31
456.029	0.29
456.388	0.3
456.746	0.3
457.104	0.29
457.461	0.28
457.819	0.29
458.177	0.28
458.535	0.27
458.893	0.28
459.25	0.28
459.608	0.28
459.966	0.27
460.323	0.26
460.681	0.25
461.038	0.26
461.396	0.27
461.753	0.26
462.111	0.25
462.468	0.25
462.825	0.25
463.182	0.24
463.54	0.24
463.897	0.24
464.254	0.24
464.611	0.24
464.968	0.23
465.325	0.24
465.682	0.25
466.039	0.24
466.395	0.23
466.752	0.23
467.109	0.23
467.466	0.22
467.822	0.22
468.179	0.22
468.535	0.22
468.892	0.21
469.248	0.21
469.605	0.2
469.961	0.21
470.318	0.21
470.674	0.21
471.03	0.21
471.386	0.2
471.743	0.2
472.099	0.19
472.455	0.2
472.811	0.2
473.167	0.2
473.523	0.19
473.879	0.19
474.235	0.19
474.59	0.19
474.946	0.19
475.302	0.19
475.657	0.17
476.013	0.18
476.369	0.16
476.724	0.17
477.08	0.18
477.435	0.17
477.791	0.17
478.146	0.17
478.501	0.17
478.857	0.17
479.212	0.16
479.567	0.16
479.922	0.15
480.277	0.15
480.632	0.15
480.987	0.15
481.342	0.15
481.697	0.14
482.052	0.15
482.407	0.15
482.762	0.14
483.116	0.14
483.471	0.14
483.826	0.14
484.18	0.14
484.535	0.13
484.89	0.14
485.244	0.14
485.598	0.13
485.953	0.13
486.307	0.13
486.661	0.14
487.016	0.13
487.37	0.13
487.724	0.13
488.078	0.13
488.432	0.13
488.786	0.12
489.14	0.13
489.494	0.11
489.848	0.12
490.202	0.12
490.556	0.12
490.91	0.12
491.263	0.12
491.617	0.12
491.971	0.12
492.324	0.12
492.678	0.12
493.031	0.12
493.385	0.11
493.738	0.11
494.091	0.11
494.445	0.12
494.798	0.12
495.151	0.11
495.504	0.11
495.857	0.11
496.21	0.11
496.564	0.1
496.916	0.11
497.269	0.1
497.622	0.11
497.975	0.11
498.328	0.11
498.681	0.11
499.033	0.1
499.386	0.09
499.739	0.1
500.091	0.1
500.444	0.1
500.796	0.1
501.149	0.09
501.501	0.1
501.854	0.1
502.206	0.1
502.558	0.09
502.91	0.1
503.263	0.1
503.615	0.1
503.967	0.09
504.319	0.1
504.671	0.1
505.023	0.1
505.375	0.1
505.726	0.1
506.078	0.1
506.43	0.09
506.782	0.09
507.133	0.09
507.485	0.1
507.837	0.1
508.188	0.1
508.54	0.09
508.891	0.1
509.243	0.09
509.594	0.09
509.945	0.09
510.296	0.09
510.648	0.1
510.999	0.09
511.35	0.09
511.701	0.09
512.052	0.1
512.403	0.1
512.754	0.09
513.105	0.09
513.456	0.09
513.807	0.09
514.157	0.09
514.508	0.09
514.859	0.09
515.209	0.09
515.56	0.09
515.91	0.09
516.261	0.09
516.611	0.09
516.962	0.09
517.312	0.09
517.662	0.09
518.013	0.09
518.363	0.1
518.713	0.1
519.063	0.1
519.413	0.09
519.763	0.09
520.113	0.09
520.463	0.1
520.813	0.11
521.163	0.1
521.512	0.1
521.862	0.1
522.212	0.1
522.562	0.1
522.911	0.1
523.261	0.09
523.61	0.09
523.96	0.09
524.309	0.1
524.658	0.1
525.008	0.1
525.357	0.09
525.706	0.1
526.056	0.09
526.405	0.09
526.754	0.09
527.103	0.09
527.452	0.09
527.801	0.1
528.15	0.09
528.499	0.1
528.847	0.1
529.196	0.1
529.545	0.1
529.893	0.1
530.242	0.1
530.591	0.1
530.939	0.1
531.288	0.1
531.636	0.11
531.985	0.1
532.333	0.1
532.681	0.1
533.029	0.1
533.378	0.1
533.726	0.1
534.074	0.11
534.422	0.1
534.77	0.1
535.118	0.11
535.466	0.09
535.814	0.11
536.162	0.11
536.509	0.1
536.857	0.1
537.205	0.1
537.552	0.11
537.9	0.1
538.248	0.1
538.595	0.1
538.943	0.1
539.29	0.11
539.637	0.1
539.985	0.1
540.332	0.1
540.679	0.1
541.026	0.1
541.373	0.11
541.721	0.09
542.068	0.1
542.415	0.1
542.762	0.1
543.108	0.09
543.455	0.09
543.802	0.1
544.149	0.09
544.496	0.09
544.842	0.09
545.189	0.09
545.535	0.09
545.882	0.09
546.228	0.09
546.575	0.09
546.921	0.09
547.267	0.09
547.614	0.09
547.96	0.09
548.306	0.09
548.652	0.09
548.998	0.09
549.344	0.09
549.69	0.09
550.036	0.09
550.382	0.09
550.728	0.09
551.074	0.09
551.42	0.1
551.765	0.09
552.111	0.1
552.457	0.1
552.802	0.09
553.148	0.09
553.493	0.09
553.839	0.1
554.184	0.1
554.529	0.09
554.875	0.09
555.22	0.11
555.565	0.1
555.91	0.1
556.255	0.1
556.6	0.1
556.945	0.09
557.29	0.1
557.635	0.1
557.98	0.1
558.325	0.1
558.67	0.1
559.014	0.1
559.359	0.1
559.704	0.1
560.048	0.08
560.393	0.1
560.737	0.09
561.082	0.1
561.426	0.09
561.77	0.09
562.115	0.09
562.459	0.09
562.803	0.09
563.147	0.1
563.491	0.09
563.835	0.09
564.179	0.1
564.523	0.09
564.867	0.09
565.211	0.1
565.555	0.1
565.899	0.1
566.242	0.1
566.586	0.09
566.93	0.1
567.273	0.1
567.617	0.09
567.96	0.1
568.304	0.1
568.647	0.1
568.99	0.1
569.334	0.1
569.677	0.1
570.02	0.1
570.363	0.1
570.706	0.09
571.049	0.09
571.392	0.11
571.735	0.1
572.078	0.1
572.421	0.11
572.764	0.1
573.106	0.1
573.449	0.1
573.792	0.11
574.134	0.1
574.477	0.1
574.819	0.1
575.162	0.09
575.504	0.1
575.847	0.1
576.189	0.1
576.531	0.09
576.873	0.1
577.215	0.1
577.558	0.1
577.9	0.1
578.242	0.09
578.584	0.09
578.926	0.1
579.267	0.1
579.609	0.1
579.951	0.09
580.293	0.1
580.634	0.1
580.976	0.1
581.318	0.09
581.659	0.1
582.001	0.1
582.342	0.09
582.683	0.1
583.025	0.09
583.366	0.09
583.707	0.09
584.049	0.09
584.39	0.09
584.731	0.09
585.072	0.09
585.413	0.1
585.754	0.1
586.095	0.1
586.435	0.1
586.776	0.1
587.117	0.09
587.458	0.09
587.798	0.1
588.139	0.1
588.48	0.09
588.82	0.09
589.161	0.09
589.501	0.09
589.841	0.09
590.182	0.09
590.522	0.09
590.862	0.09
591.202	0.09
591.542	0.09
591.882	0.09
592.222	0.09
592.562	0.09
592.902	0.09
593.242	0.09
593.582	0.09
593.922	0.09
594.261	0.09
594.601	0.09
594.941	0.09
595.28	0.1
595.62	0.09
595.959	0.09
596.299	0.09
596.638	0.09
596.977	0.09
597.317	0.1
597.656	0.09
597.995	0.1
598.334	0.1
598.673	0.09
599.012	0.1
599.351	0.1
599.69	0.09
600.029	0.11
600.368	0.1
600.707	0.1
601.046	0.1
601.384	0.1
601.723	0.1
602.061	0.1
602.4	0.1
602.738	0.1
603.077	0.1
603.415	0.1
603.754	0.1
604.092	0.1
604.43	0.09
604.768	0.1
605.107	0.11
605.445	0.1
605.783	0.1
606.121	0.09
606.459	0.1
606.796	0.1
607.134	0.09
607.472	0.09
607.81	0.1
608.148	0.1
608.485	0.1
608.823	0.09
609.16	0.09
609.498	0.09
609.835	0.1
610.173	0.09
610.51	0.09
610.847	0.1
611.185	0.09
611.522	0.09
611.859	0.1
612.196	0.09
612.533	0.1
612.87	0.1
613.207	0.1
613.544	0.11
613.881	0.11
614.217	0.1
614.554	0.1
614.891	0.1
615.228	0.1
615.564	0.1
615.901	0.1
616.237	0.11
616.574	0.11
616.91	0.11
617.246	0.11
617.583	0.1
617.919	0.1
618.255	0.11
618.591	0.1
618.927	0.1
619.263	0.11
619.599	0.1
619.935	0.11
620.271	0.1
620.607	0.1
620.943	0.1
621.279	0.1
621.614	0.1
621.95	0.11
622.286	0.1
622.621	0.1
622.957	0.1
623.292	0.1
623.627	0.1
623.963	0.1
624.298	0.1
624.633	0.09
624.968	0.09
625.304	0.09
625.639	0.09
625.974	0.1
626.309	0.09
626.644	0.09
626.979	0.1
627.313	0.09
627.648	0.1
627.983	0.1
628.318	0.09
628.652	0.09
628.987	0.09
629.321	0.1
629.656	0.08
629.99	0.09
630.325	0.09
630.659	0.09
630.993	0.08
631.327	0.09
631.662	0.08
631.996	0.08
632.33	0.08
632.664	0.09
632.998	0.08
633.332	0.08
633.666	0.09
633.999	0.09
634.333	0.08
634.667	0.08
635.001	0.08
635.334	0.08
635.668	0.08
636.001	0.08
636.335	0.08
636.668	0.09
637.001	0.08
637.335	0.09
637.668	0.08
638.001	0.09
638.334	0.09
638.668	0.08
639.001	0.08
639.334	0.08
639.667	0.08
639.999	0.09
640.332	0.08
640.665	0.08
640.998	0.09
641.331	0.09
641.663	0.09
641.996	0.09
642.328	0.09
642.661	0.09
642.993	0.09
643.326	0.09
643.658	0.09
643.99	0.08
644.323	0.09
644.655	0.09
644.987	0.09
645.319	0.08
645.651	0.1
645.983	0.09
646.315	0.08
646.647	0.09
646.979	0.1
647.31	0.09
647.642	0.09
647.974	0.08
648.305	0.09
648.637	0.09
648.968	0.09
649.3	0.09
649.631	0.1
649.963	0.08
650.294	0.09
650.625	0.09
650.957	0.09
651.288	0.09
651.619	0.09
651.95	0.09
652.281	0.09
652.612	0.09
652.943	0.1
653.274	0.09
653.604	0.09
653.935	0.09
654.266	0.09
654.596	0.08
654.927	0.08
655.258	0.09
655.588	0.1
655.918	0.09
656.249	0.07
656.579	0.08
656.909	0.08
657.24	0.08
657.57	0.08
657.9	0.09
658.23	0.08
658.56	0.09
658.89	0.09
659.22	0.08
659.55	0.09
659.88	0.09
660.209	0.09
660.539	0.1
660.869	0.09
661.198	0.09
661.528	0.09
661.857	0.09
662.187	0.09
662.516	0.08
662.846	0.08
663.175	0.08
663.504	0.08
663.833	0.08
664.163	0.08
664.492	0.08
664.821	0.08
665.15	0.07
665.479	0.09
665.807	0.08
666.136	0.09
666.465	0.09
666.794	0.09
667.122	0.09
667.451	0.09
667.78	0.09
668.108	0.09
668.437	0.09
668.765	0.09
669.093	0.09
669.422	0.09
669.75	0.09
670.078	0.09
670.406	0.09
670.734	0.09
671.062	0.09
671.39	0.09
671.718	0.08
672.046	0.09
672.374	0.08
672.702	0.08
673.029	0.08
673.357	0.09
673.685	0.09
674.012	0.08
674.34	0.08
674.667	0.09
674.995	0.09
675.322	0.09
675.649	0.08
675.977	0.08
676.304	0.08
676.631	0.08
676.958	0.08
677.285	0.08
677.612	0.08
677.939	0.08
678.266	0.09
678.593	0.08
678.92	0.08
679.246	0.08
679.573	0.08
679.9	0.08
680.226	0.08
680.553	0.08
680.879	0.08
681.206	0.08
681.532	0.08
681.858	0.08
682.184	0.08
682.511	0.08
682.837	0.08
683.163	0.08
683.489	0.08
683.815	0.08
684.141	0.09
684.467	0.08
684.793	0.07
685.118	0.08
685.444	0.09
685.77	0.08
686.095	0.08
686.421	0.08
686.746	0.08
687.072	0.08
687.397	0.07
687.723	0.08
688.048	0.08
688.373	0.08
688.698	0.07
689.023	0.08
689.349	0.08
689.674	0.08
689.999	0.08
690.323	0.07
690.648	0.06
690.973	0.07
691.298	0.07
691.623	0.07
691.947	0.07
692.272	0.07
692.596	0.08
692.921	0.08
693.245	0.08
693.57	0.08
693.894	0.09
694.218	0.08
694.543	0.08
694.867	0.08
695.191	0.07
695.515	0.08
695.839	0.07
696.163	0.08
696.487	0.08
696.811	0.07
697.135	0.09
697.458	0.08
697.782	0.08
698.106	0.08
698.429	0.08
698.753	0.08
699.076	0.08
699.4	0.07
699.723	0.08
700.046	0.07
700.37	0.08
700.693	0.08
701.016	0.07
701.339	0.08
701.662	0.08
701.985	0.08
702.308	0.07
702.631	0.08
702.954	0.08
703.277	0.07
703.599	0.08
703.922	0.08
704.245	0.07
704.567	0.07
704.89	0.07
705.212	0.08
705.535	0.07
705.857	0.07
706.179	0.06
706.502	0.06
706.824	0.06
707.146	0.07
707.468	0.08
707.79	0.07
708.112	0.07
708.434	0.07
708.756	0.07
709.078	0.07
709.399	0.07
709.721	0.06
710.043	0.08
710.364	0.07
710.686	0.07
711.007	0.08
711.329	0.08
711.65	0.07
711.972	0.08
712.293	0.07
712.614	0.08
712.935	0.08
713.256	0.08
713.577	0.08
713.898	0.08
714.219	0.07
714.54	0.07
714.861	0.07
715.182	0.07
715.503	0.06
715.823	0.07
716.144	0.07
716.464	0.06
716.785	0.06
717.105	0.06
717.426	0.07
717.746	0.07
718.066	0.06
718.387	0.06
718.707	0.06
719.027	0.06
719.347	0.06
719.667	0.07
719.987	0.06
720.307	0.06
720.627	0.06
720.947	0.06
721.266	0.06
721.586	0.05
721.906	0.06
722.225	0.05
722.545	0.06
722.864	0.06
723.184	0.07
723.503	0.06
723.823	0.06
724.142	0.06
724.461	0.06
724.78	0.07
725.099	0.06
725.418	0.07
725.737	0.06
726.056	0.07
726.375	0.06
726.694	0.07
727.013	0.06
727.331	0.05
727.65	0.06
727.969	0.06
