Data from 12-12-AQDScycling_Absorbance__398__00398.txt Node

Date: Tue Dec 12 12:36:14 EST 2023
User: kyuminlee
Spectrometer: FLMS00943
Trigger mode: 0
Integration Time (sec): 1.000000E-1
Scans to average: 1
Electric dark correction enabled: true
Nonlinearity correction enabled: false
Boxcar width: 0
XAxis mode: Wavelengths
Number of Pixels in Spectrum: 2048
>>>>>Begin Spectral Data<<<<<
179.651	0.32
180.037	0.32
180.424	0.32
180.81	1.81
181.197	0.24
181.583	-0.07
181.97	-0.24
182.356	-0
182.743	-1.5
183.129	-0.12
183.515	-0.32
183.901	-2.65
184.288	0.27
184.674	0.3
185.06	-0
185.446	-0
185.832	-0
186.218	0.15
186.604	-0
186.99	-0
187.376	0.27
187.762	-0
188.148	0.81
188.534	-0.43
188.92	0.09
189.305	0.09
189.691	0.04
190.077	0.3
190.463	0.11
190.848	-0.02
191.234	0.16
191.619	-0.01
192.005	0.24
192.391	0.17
192.776	0.29
193.161	0.28
193.547	0.32
193.932	0.11
194.318	0.16
194.703	0.31
195.088	0.25
195.473	0.2
195.859	0.17
196.244	0.22
196.629	0.04
197.014	0.05
197.399	0.14
197.784	0.18
198.169	0.24
198.554	0.36
198.939	0.19
199.324	0.41
199.709	0.08
200.094	0.08
200.478	0.1
200.863	0.24
201.248	0.12
201.633	0.22
202.017	0.19
202.402	0.41
202.787	0.16
203.171	0.24
203.556	0.19
203.94	0.03
204.325	0.27
204.709	0.2
205.093	0.16
205.478	0.18
205.862	0.16
206.246	0.25
206.631	0.14
207.015	0.14
207.399	0.21
207.783	0.05
208.167	0.19
208.551	0.37
208.935	0.21
209.319	0.17
209.703	0.22
210.087	0.21
210.471	0.09
210.855	0.08
211.239	0.26
211.623	0.29
212.007	0.16
212.39	0.45
212.774	0.17
213.158	0.22
213.541	0.37
213.925	0.29
214.309	0.3
214.692	0.36
215.076	0.29
215.459	0.31
215.842	0.19
216.226	0.36
216.609	0.29
216.993	0.31
217.376	0.61
217.759	0.23
218.142	0.37
218.525	0.72
218.909	0.49
219.292	0.37
219.675	0.51
220.058	0.37
220.441	0.49
220.824	0.45
221.207	0.79
221.59	0.52
221.973	0.6
222.355	0.72
222.738	0.62
223.121	0.68
223.504	0.64
223.886	0.66
224.269	0.76
224.652	0.65
225.034	0.79
225.417	0.7
225.799	0.93
226.182	0.86
226.564	0.9
226.947	0.86
227.329	1.07
227.711	1.17
228.094	0.95
228.476	0.92
228.858	0.79
229.24	0.86
229.623	1.04
230.005	0.73
230.387	0.96
230.769	0.86
231.151	0.96
231.533	0.98
231.915	0.99
232.297	0.95
232.679	1.13
233.061	0.96
233.442	1.06
233.824	1.04
234.206	1.2
234.588	1.11
234.969	1
235.351	1.06
235.733	1.08
236.114	1.39
236.496	1.14
236.877	1.12
237.259	1.15
237.64	1.11
238.022	1.03
238.403	1.04
238.784	1.04
239.165	1.01
239.547	1.13
239.928	1.11
240.309	1.03
240.69	1.16
241.071	1.14
241.452	1.23
241.834	1.18
242.215	1.2
242.595	0.97
242.976	1.32
243.357	1.26
243.738	1.05
244.119	1.27
244.5	1.13
244.881	1.23
245.261	1.39
245.642	1.21
246.023	1.29
246.403	1.15
246.784	1.15
247.164	1.38
247.545	1.29
247.925	1.34
248.306	1.37
248.686	1.51
249.067	1.35
249.447	1.33
249.827	1.67
250.207	1.48
250.588	1.37
250.968	1.44
251.348	1.54
251.728	1.43
252.108	1.36
252.488	1.34
252.868	1.41
253.248	1.4
253.628	1.46
254.008	1.45
254.388	1.35
254.768	1.37
255.147	1.46
255.527	1.58
255.907	1.39
256.287	1.36
256.666	1.33
257.046	1.45
257.425	1.71
257.805	1.4
258.184	1.24
258.564	1.47
258.943	1.41
259.323	1.45
259.702	1.52
260.081	1.53
260.461	1.48
260.84	1.61
261.219	1.68
261.598	1.49
261.977	1.56
262.356	1.52
262.736	1.6
263.115	1.7
263.494	1.59
263.873	1.45
264.251	1.5
264.63	1.58
265.009	1.43
265.388	1.46
265.767	1.33
266.145	1.39
266.524	1.61
266.903	1.56
267.281	1.43
267.66	1.57
268.039	1.5
268.417	1.43
268.796	1.42
269.174	1.45
269.552	1.39
269.931	1.62
270.309	1.44
270.687	1.55
271.066	1.71
271.444	1.43
271.822	1.6
272.2	1.57
272.578	1.49
272.956	1.41
273.334	1.42
273.712	1.38
274.09	1.42
274.468	1.44
274.846	1.34
275.224	1.4
275.602	1.51
275.98	1.53
276.357	1.58
276.735	1.46
277.113	1.37
277.49	1.38
277.868	1.31
278.246	1.45
278.623	1.32
279.001	1.33
279.378	1.39
279.756	1.65
280.133	1.66
280.51	1.38
280.888	1.59
281.265	1.44
281.642	1.67
282.019	1.56
282.396	1.81
282.773	1.45
283.151	1.51
283.528	1.61
283.905	1.52
284.282	1.67
284.659	1.53
285.035	1.39
285.412	1.39
285.789	1.52
286.166	1.41
286.543	1.38
286.919	1.6
287.296	1.44
287.673	1.78
288.049	1.51
288.426	1.75
288.802	1.54
289.179	1.39
289.555	1.74
289.932	1.6
290.308	1.33
290.684	1.38
291.061	1.33
291.437	1.51
291.813	1.3
292.189	1.32
292.565	1.26
292.942	1.36
293.318	1.42
293.694	1.62
294.07	1.36
294.446	1.53
294.822	1.63
295.197	1.49
295.573	1.42
295.949	1.51
296.325	1.49
296.701	1.49
297.076	1.41
297.452	1.67
297.828	1.53
298.203	1.71
298.579	1.56
298.954	1.55
299.33	1.36
299.705	1.45
300.081	1.41
300.456	1.43
300.831	1.33
301.206	1.34
301.582	1.42
301.957	1.41
302.332	1.49
302.707	1.32
303.082	1.32
303.457	1.41
303.832	1.47
304.207	1.24
304.582	1.34
304.957	1.32
305.332	1.36
305.707	1.34
306.082	1.37
306.456	1.27
306.831	1.23
307.206	1.29
307.58	1.3
307.955	1.26
308.33	1.26
308.704	1.25
309.079	1.23
309.453	1.27
309.828	1.24
310.202	1.24
310.576	1.14
310.951	1.3
311.325	1.23
311.699	1.17
312.073	1.17
312.447	1.15
312.821	1.16
313.196	1.18
313.57	1.15
313.944	1.07
314.317	1.1
314.691	1.23
315.065	1.18
315.439	1.14
315.813	1.19
316.187	1.14
316.56	1.2
316.934	1.17
317.308	1.13
317.681	1.17
318.055	1.17
318.428	1.17
318.802	1.17
319.175	1.18
319.549	1.16
319.922	1.12
320.295	1.15
320.669	1.2
321.042	1.26
321.415	1.23
321.788	1.18
322.162	1.13
322.535	1.2
322.908	1.21
323.281	1.1
323.654	1.22
324.027	1.17
324.4	1.23
324.773	1.25
325.145	1.21
325.518	1.2
325.891	1.15
326.264	1.32
326.636	1.21
327.009	1.2
327.382	1.2
327.754	1.34
328.127	1.2
328.499	1.27
328.872	1.22
329.244	1.31
329.616	1.15
329.989	1.2
330.361	1.23
330.733	1.18
331.106	1.15
331.478	1.26
331.85	1.18
332.222	1.16
332.594	1.28
332.966	1.2
333.338	1.33
333.71	1.21
334.082	1.32
334.454	1.27
334.826	1.27
335.197	1.23
335.569	1.27
335.941	1.18
336.312	1.28
336.684	1.22
337.056	1.27
337.427	1.26
337.799	1.31
338.17	1.32
338.542	1.23
338.913	1.33
339.284	1.32
339.656	1.28
340.027	1.25
340.398	1.34
340.769	1.3
341.141	1.41
341.512	1.3
341.883	1.29
342.254	1.35
342.625	1.34
342.996	1.29
343.367	1.25
343.738	1.35
344.108	1.25
344.479	1.35
344.85	1.28
345.221	1.34
345.591	1.27
345.962	1.28
346.333	1.31
346.703	1.23
347.074	1.26
347.444	1.23
347.815	1.25
348.185	1.32
348.556	1.34
348.926	1.23
349.296	1.27
349.666	1.31
350.037	1.28
350.407	1.21
350.777	1.26
351.147	1.33
351.517	1.31
351.887	1.3
352.257	1.32
352.627	1.27
352.997	1.23
353.367	1.31
353.737	1.38
354.106	1.39
354.476	1.29
354.846	1.33
355.216	1.35
355.585	1.45
355.955	1.35
356.324	1.41
356.694	1.41
357.063	1.41
357.433	1.42
357.802	1.36
358.171	1.45
358.541	1.44
358.91	1.63
359.279	1.56
359.648	1.46
360.017	1.54
360.387	1.46
360.756	1.4
361.125	1.52
361.494	1.57
361.863	1.44
362.231	1.41
362.6	1.39
362.969	1.5
363.338	1.4
363.707	1.73
364.075	1.55
364.444	1.47
364.813	1.49
365.181	1.38
365.55	1.5
365.918	1.53
366.287	1.6
366.655	1.51
367.024	1.58
367.392	1.58
367.76	1.47
368.128	1.54
368.497	1.61
368.865	1.47
369.233	1.45
369.601	1.59
369.969	1.52
370.337	1.52
370.705	1.49
371.073	1.54
371.441	1.56
371.809	1.54
372.177	1.54
372.544	1.42
372.912	1.48
373.28	1.62
373.647	1.68
374.015	1.69
374.383	1.68
374.75	1.62
375.118	1.75
375.485	1.7
375.853	1.6
376.22	1.67
376.587	1.53
376.955	1.56
377.322	1.59
377.689	1.59
378.056	1.46
378.423	1.54
378.79	1.63
379.157	1.69
379.524	1.59
379.891	1.5
380.258	1.71
380.625	1.6
380.992	1.53
381.359	1.68
381.726	1.85
382.092	1.68
382.459	1.51
382.826	1.56
383.192	1.55
383.559	1.62
383.925	1.66
384.292	1.57
384.658	1.92
385.025	1.62
385.391	1.81
385.757	1.75
386.123	1.6
386.49	1.66
386.856	1.65
387.222	1.84
387.588	1.56
387.954	1.79
388.32	1.91
388.686	1.76
389.052	1.54
389.418	1.71
389.784	1.65
390.15	1.67
390.515	1.44
390.881	2.1
391.247	1.48
391.613	1.62
391.978	1.4
392.344	1.71
392.709	1.54
393.075	1.66
393.44	1.61
393.806	1.69
394.171	1.58
394.536	1.56
394.902	1.59
395.267	1.57
395.632	1.45
395.997	1.55
396.362	1.5
396.727	1.72
397.092	1.78
397.457	1.67
397.822	1.59
398.187	1.77
398.552	1.58
398.917	1.76
399.282	1.54
399.646	1.52
400.011	1.7
400.376	1.53
400.74	1.51
401.105	1.66
401.47	1.59
401.834	1.52
402.199	1.49
402.563	1.55
402.927	1.46
403.292	1.73
403.656	1.73
404.02	1.59
404.384	1.72
404.749	1.75
405.113	1.6
405.477	1.56
405.841	1.56
406.205	1.68
406.569	1.58
406.933	1.5
407.296	1.54
407.66	1.53
408.024	1.51
408.388	1.54
408.752	1.62
409.115	1.77
409.479	1.61
409.842	1.53
410.206	1.43
410.569	1.44
410.933	1.62
411.296	1.47
411.66	1.71
412.023	1.4
412.386	1.54
412.749	1.36
413.113	1.74
413.476	1.46
413.839	1.53
414.202	1.43
414.565	1.36
414.928	1.48
415.291	1.42
415.654	1.36
416.017	1.49
416.38	1.51
416.742	1.49
417.105	1.41
417.468	1.37
417.83	1.48
418.193	1.73
418.556	1.37
418.918	1.48
419.281	1.48
419.643	1.48
420.005	1.43
420.368	1.43
420.73	1.37
421.092	1.53
421.455	1.5
421.817	1.34
422.179	1.46
422.541	1.54
422.903	1.59
423.265	1.55
423.627	1.48
423.989	1.43
424.351	1.43
424.713	1.48
425.075	1.46
425.436	1.38
425.798	1.43
426.16	1.48
426.521	1.42
426.883	1.59
427.245	1.49
427.606	1.36
427.967	1.34
428.329	1.45
428.69	1.45
429.052	1.47
429.413	1.39
429.774	1.47
430.135	1.44
430.497	1.47
430.858	1.37
431.219	1.47
431.58	1.36
431.941	1.38
432.302	1.39
432.663	1.33
433.024	1.49
433.384	1.41
433.745	1.34
434.106	1.46
434.467	1.32
434.827	1.45
435.188	1.41
435.548	1.42
435.909	1.43
436.269	1.41
436.63	1.32
436.99	1.37
437.351	1.31
437.711	1.41
438.071	1.26
438.431	1.35
438.792	1.36
439.152	1.31
439.512	1.34
439.872	1.34
440.232	1.36
440.592	1.34
440.952	1.35
441.312	1.34
441.671	1.3
442.031	1.25
442.391	1.28
442.751	1.28
443.11	1.27
443.47	1.26
443.83	1.19
444.189	1.18
444.549	1.23
444.908	1.2
445.267	1.2
445.627	1.21
445.986	1.17
446.345	1.17
446.705	1.21
447.064	1.19
447.423	1.21
447.782	1.18
448.141	1.17
448.5	1.1
448.859	1.16
449.218	1.12
449.577	1.15
449.936	1.17
450.295	1.12
450.653	1.11
451.012	1.12
451.371	1.1
451.729	1.11
452.088	1.08
452.447	1.12
452.805	1.09
453.163	1.06
453.522	1.05
453.88	1.04
454.239	1.05
454.597	1.01
454.955	1
455.313	0.99
455.671	1.01
456.029	1
456.388	0.98
456.746	0.96
457.104	0.95
457.461	0.94
457.819	0.94
458.177	0.91
458.535	0.92
458.893	0.89
459.25	0.87
459.608	0.89
459.966	0.85
460.323	0.86
460.681	0.84
461.038	0.84
461.396	0.81
461.753	0.81
462.111	0.8
462.468	0.79
462.825	0.76
463.182	0.76
463.54	0.75
463.897	0.76
464.254	0.74
464.611	0.73
464.968	0.72
465.325	0.72
465.682	0.7
466.039	0.7
466.395	0.68
466.752	0.68
467.109	0.67
467.466	0.67
467.822	0.65
468.179	0.64
468.535	0.63
468.892	0.62
469.248	0.61
469.605	0.6
469.961	0.6
470.318	0.59
470.674	0.57
471.03	0.57
471.386	0.56
471.743	0.54
472.099	0.54
472.455	0.53
472.811	0.52
473.167	0.52
473.523	0.5
473.879	0.49
474.235	0.5
474.59	0.47
474.946	0.47
475.302	0.47
475.657	0.45
476.013	0.45
476.369	0.44
476.724	0.44
477.08	0.44
477.435	0.42
477.791	0.42
478.146	0.41
478.501	0.41
478.857	0.41
479.212	0.4
479.567	0.39
479.922	0.38
480.277	0.38
480.632	0.36
480.987	0.36
481.342	0.36
481.697	0.36
482.052	0.34
482.407	0.34
482.762	0.33
483.116	0.33
483.471	0.32
483.826	0.31
484.18	0.31
484.535	0.3
484.89	0.3
485.244	0.3
485.598	0.3
485.953	0.29
486.307	0.28
486.661	0.29
487.016	0.28
487.37	0.28
487.724	0.27
488.078	0.27
488.432	0.27
488.786	0.26
489.14	0.25
489.494	0.25
489.848	0.25
490.202	0.24
490.556	0.24
490.91	0.24
491.263	0.24
491.617	0.24
491.971	0.23
492.324	0.22
492.678	0.22
493.031	0.23
493.385	0.22
493.738	0.22
494.091	0.22
494.445	0.21
494.798	0.21
495.151	0.21
495.504	0.21
495.857	0.2
496.21	0.21
496.564	0.2
496.916	0.2
497.269	0.19
497.622	0.19
497.975	0.19
498.328	0.2
498.681	0.19
499.033	0.18
499.386	0.18
499.739	0.19
500.091	0.18
500.444	0.18
500.796	0.18
501.149	0.17
501.501	0.18
501.854	0.17
502.206	0.17
502.558	0.17
502.91	0.17
503.263	0.16
503.615	0.17
503.967	0.17
504.319	0.17
504.671	0.16
505.023	0.16
505.375	0.16
505.726	0.16
506.078	0.15
506.43	0.15
506.782	0.16
507.133	0.16
507.485	0.16
507.837	0.16
508.188	0.16
508.54	0.16
508.891	0.16
509.243	0.15
509.594	0.15
509.945	0.15
510.296	0.15
510.648	0.15
510.999	0.15
511.35	0.15
511.701	0.15
512.052	0.15
512.403	0.15
512.754	0.14
513.105	0.15
513.456	0.14
513.807	0.14
514.157	0.16
514.508	0.15
514.859	0.14
515.209	0.15
515.56	0.15
515.91	0.14
516.261	0.15
516.611	0.15
516.962	0.14
517.312	0.14
517.662	0.14
518.013	0.14
518.363	0.15
518.713	0.14
519.063	0.14
519.413	0.14
519.763	0.14
520.113	0.14
520.463	0.14
520.813	0.15
521.163	0.15
521.512	0.14
521.862	0.14
522.212	0.14
522.562	0.15
522.911	0.15
523.261	0.14
523.61	0.14
523.96	0.15
524.309	0.14
524.658	0.14
525.008	0.14
525.357	0.14
525.706	0.15
526.056	0.14
526.405	0.15
526.754	0.15
527.103	0.14
527.452	0.14
527.801	0.15
528.15	0.14
528.499	0.14
528.847	0.14
529.196	0.15
529.545	0.16
529.893	0.15
530.242	0.14
530.591	0.15
530.939	0.16
531.288	0.15
531.636	0.15
531.985	0.15
532.333	0.14
532.681	0.15
533.029	0.15
533.378	0.15
533.726	0.14
534.074	0.15
534.422	0.14
534.77	0.15
535.118	0.15
535.466	0.15
535.814	0.15
536.162	0.15
536.509	0.16
536.857	0.15
537.205	0.16
537.552	0.15
537.9	0.15
538.248	0.14
538.595	0.15
538.943	0.16
539.29	0.15
539.637	0.14
539.985	0.15
540.332	0.15
540.679	0.16
541.026	0.15
541.373	0.15
541.721	0.15
542.068	0.15
542.415	0.15
542.762	0.14
543.108	0.13
543.455	0.14
543.802	0.14
544.149	0.14
544.496	0.15
544.842	0.14
545.189	0.14
545.535	0.14
545.882	0.15
546.228	0.14
546.575	0.13
546.921	0.14
547.267	0.14
547.614	0.14
547.96	0.14
548.306	0.14
548.652	0.14
548.998	0.14
549.344	0.14
549.69	0.14
550.036	0.14
550.382	0.14
550.728	0.14
551.074	0.15
551.42	0.15
551.765	0.15
552.111	0.15
552.457	0.15
552.802	0.14
553.148	0.14
553.493	0.14
553.839	0.15
554.184	0.15
554.529	0.14
554.875	0.15
555.22	0.15
555.565	0.15
555.91	0.15
556.255	0.16
556.6	0.15
556.945	0.14
557.29	0.15
557.635	0.15
557.98	0.15
558.325	0.15
558.67	0.15
559.014	0.15
559.359	0.15
559.704	0.16
560.048	0.15
560.393	0.15
560.737	0.15
561.082	0.15
561.426	0.14
561.77	0.15
562.115	0.14
562.459	0.14
562.803	0.15
563.147	0.15
563.491	0.15
563.835	0.15
564.179	0.15
564.523	0.14
564.867	0.14
565.211	0.14
565.555	0.15
565.899	0.15
566.242	0.15
566.586	0.14
566.93	0.15
567.273	0.15
567.617	0.16
567.96	0.16
568.304	0.16
568.647	0.15
568.99	0.15
569.334	0.16
569.677	0.15
570.02	0.16
570.363	0.15
570.706	0.15
571.049	0.15
571.392	0.15
571.735	0.14
572.078	0.15
572.421	0.16
572.764	0.15
573.106	0.15
573.449	0.15
573.792	0.15
574.134	0.15
574.477	0.15
574.819	0.14
575.162	0.15
575.504	0.15
575.847	0.14
576.189	0.15
576.531	0.15
576.873	0.15
577.215	0.14
577.558	0.16
577.9	0.15
578.242	0.15
578.584	0.15
578.926	0.15
579.267	0.15
579.609	0.15
579.951	0.15
580.293	0.15
580.634	0.15
580.976	0.15
581.318	0.15
581.659	0.15
582.001	0.15
582.342	0.14
582.683	0.16
583.025	0.14
583.366	0.15
583.707	0.15
584.049	0.15
584.39	0.15
584.731	0.14
585.072	0.14
585.413	0.14
585.754	0.15
586.095	0.15
586.435	0.15
586.776	0.15
587.117	0.14
587.458	0.14
587.798	0.15
588.139	0.15
588.48	0.14
588.82	0.14
589.161	0.14
589.501	0.14
589.841	0.15
590.182	0.15
590.522	0.15
590.862	0.14
591.202	0.15
591.542	0.14
591.882	0.14
592.222	0.15
592.562	0.15
592.902	0.14
593.242	0.14
593.582	0.15
593.922	0.15
594.261	0.14
594.601	0.14
594.941	0.14
595.28	0.14
595.62	0.15
595.959	0.14
596.299	0.14
596.638	0.14
596.977	0.14
597.317	0.15
597.656	0.15
597.995	0.14
598.334	0.16
598.673	0.15
599.012	0.14
599.351	0.15
599.69	0.14
600.029	0.15
600.368	0.15
600.707	0.15
601.046	0.15
601.384	0.15
601.723	0.15
602.061	0.15
602.4	0.15
602.738	0.15
603.077	0.15
603.415	0.14
603.754	0.14
604.092	0.15
604.43	0.14
604.768	0.15
605.107	0.15
605.445	0.14
605.783	0.14
606.121	0.14
606.459	0.15
606.796	0.14
607.134	0.14
607.472	0.14
607.81	0.14
608.148	0.13
608.485	0.14
608.823	0.14
609.16	0.14
609.498	0.14
609.835	0.14
610.173	0.14
610.51	0.14
610.847	0.14
611.185	0.15
611.522	0.15
611.859	0.15
612.196	0.15
612.533	0.16
612.87	0.15
613.207	0.15
613.544	0.16
613.881	0.15
614.217	0.15
614.554	0.15
614.891	0.15
615.228	0.15
615.564	0.15
615.901	0.14
616.237	0.15
616.574	0.15
616.91	0.15
617.246	0.15
617.583	0.15
617.919	0.16
618.255	0.15
618.591	0.15
618.927	0.15
619.263	0.15
619.599	0.15
619.935	0.15
620.271	0.15
620.607	0.15
620.943	0.15
621.279	0.15
621.614	0.15
621.95	0.15
622.286	0.15
622.621	0.15
622.957	0.14
623.292	0.14
623.627	0.14
623.963	0.14
624.298	0.14
624.633	0.14
624.968	0.13
625.304	0.14
625.639	0.13
625.974	0.14
626.309	0.13
626.644	0.13
626.979	0.14
627.313	0.13
627.648	0.14
627.983	0.13
628.318	0.13
628.652	0.12
628.987	0.13
629.321	0.14
629.656	0.12
629.99	0.12
630.325	0.13
630.659	0.13
630.993	0.13
631.327	0.13
631.662	0.13
631.996	0.13
632.33	0.13
632.664	0.13
632.998	0.13
633.332	0.12
633.666	0.13
633.999	0.13
634.333	0.12
634.667	0.13
635.001	0.12
635.334	0.12
635.668	0.12
636.001	0.13
636.335	0.12
636.668	0.13
637.001	0.13
637.335	0.13
637.668	0.13
638.001	0.12
638.334	0.13
638.668	0.12
639.001	0.12
639.334	0.12
639.667	0.11
639.999	0.12
640.332	0.12
640.665	0.11
640.998	0.12
641.331	0.12
641.663	0.11
641.996	0.11
642.328	0.13
642.661	0.12
642.993	0.12
643.326	0.12
643.658	0.11
643.99	0.12
644.323	0.12
644.655	0.11
644.987	0.11
645.319	0.11
645.651	0.12
645.983	0.11
646.315	0.11
646.647	0.12
646.979	0.12
647.31	0.12
647.642	0.12
647.974	0.12
648.305	0.13
648.637	0.12
648.968	0.12
649.3	0.13
649.631	0.12
649.963	0.12
650.294	0.12
650.625	0.12
650.957	0.12
651.288	0.12
651.619	0.12
651.95	0.12
652.281	0.12
652.612	0.12
652.943	0.12
653.274	0.13
653.604	0.13
653.935	0.12
654.266	0.12
654.596	0.11
654.927	0.12
655.258	0.12
655.588	0.12
655.918	0.12
656.249	0.1
656.579	0.11
656.909	0.12
657.24	0.13
657.57	0.12
657.9	0.12
658.23	0.12
658.56	0.13
658.89	0.12
659.22	0.12
659.55	0.12
659.88	0.13
660.209	0.13
660.539	0.13
660.869	0.12
661.198	0.13
661.528	0.12
661.857	0.12
662.187	0.13
662.516	0.12
662.846	0.12
663.175	0.12
663.504	0.12
663.833	0.12
664.163	0.13
664.492	0.11
664.821	0.12
665.15	0.12
665.479	0.12
665.807	0.11
666.136	0.11
666.465	0.11
666.794	0.12
667.122	0.11
667.451	0.11
667.78	0.12
668.108	0.11
668.437	0.11
668.765	0.11
669.093	0.11
669.422	0.11
669.75	0.11
670.078	0.12
670.406	0.12
670.734	0.12
671.062	0.11
671.39	0.11
671.718	0.11
672.046	0.11
672.374	0.11
672.702	0.11
673.029	0.11
673.357	0.11
673.685	0.12
674.012	0.11
674.34	0.11
674.667	0.12
674.995	0.11
675.322	0.11
675.649	0.11
675.977	0.11
676.304	0.11
676.631	0.11
676.958	0.11
677.285	0.1
677.612	0.11
677.939	0.11
678.266	0.11
678.593	0.12
678.92	0.12
679.246	0.11
679.573	0.11
679.9	0.11
680.226	0.11
680.553	0.1
680.879	0.11
681.206	0.11
681.532	0.11
681.858	0.1
682.184	0.1
682.511	0.1
682.837	0.1
683.163	0.11
683.489	0.1
683.815	0.1
684.141	0.1
684.467	0.1
684.793	0.1
685.118	0.09
685.444	0.1
685.77	0.1
686.095	0.1
686.421	0.1
686.746	0.1
687.072	0.11
687.397	0.1
687.723	0.11
688.048	0.11
688.373	0.1
688.698	0.11
689.023	0.11
689.349	0.1
689.674	0.1
689.999	0.1
690.323	0.1
690.648	0.1
690.973	0.1
691.298	0.1
691.623	0.1
691.947	0.1
692.272	0.1
692.596	0.11
692.921	0.1
693.245	0.1
693.57	0.1
693.894	0.1
694.218	0.1
694.543	0.1
694.867	0.1
695.191	0.1
695.515	0.1
695.839	0.09
696.163	0.1
696.487	0.09
696.811	0.09
697.135	0.1
697.458	0.09
697.782	0.09
698.106	0.09
698.429	0.1
698.753	0.09
699.076	0.09
699.4	0.09
699.723	0.09
700.046	0.09
700.37	0.09
700.693	0.1
701.016	0.09
701.339	0.09
701.662	0.1
701.985	0.09
702.308	0.08
702.631	0.09
702.954	0.1
703.277	0.09
703.599	0.09
703.922	0.08
704.245	0.09
704.567	0.08
704.89	0.08
705.212	0.09
705.535	0.08
705.857	0.08
706.179	0.07
706.502	0.08
706.824	0.07
707.146	0.07
707.468	0.08
707.79	0.08
708.112	0.08
708.434	0.08
708.756	0.08
709.078	0.08
709.399	0.08
709.721	0.08
710.043	0.08
710.364	0.08
710.686	0.08
711.007	0.08
711.329	0.09
711.65	0.09
711.972	0.08
712.293	0.09
712.614	0.08
712.935	0.09
713.256	0.08
713.577	0.09
713.898	0.08
714.219	0.08
714.54	0.08
714.861	0.08
715.182	0.08
715.503	0.08
715.823	0.08
716.144	0.08
716.464	0.07
716.785	0.08
717.105	0.07
717.426	0.08
717.746	0.08
718.066	0.06
718.387	0.07
718.707	0.06
719.027	0.07
719.347	0.06
719.667	0.06
719.987	0.07
720.307	0.07
720.627	0.07
720.947	0.07
721.266	0.07
721.586	0.06
721.906	0.07
722.225	0.07
722.545	0.07
722.864	0.07
723.184	0.07
723.503	0.06
