Data from 12-12-AQDScycling_Absorbance__924__00924.txt Node

Date: Tue Dec 12 14:47:44 EST 2023
User: kyuminlee
Spectrometer: FLMS00943
Trigger mode: 0
Integration Time (sec): 1.000000E-1
Scans to average: 1
Electric dark correction enabled: true
Nonlinearity correction enabled: false
Boxcar width: 0
XAxis mode: Wavelengths
Number of Pixels in Spectrum: 2048
>>>>>Begin Spectral Data<<<<<
179.651	-0
180.037	-0
180.424	-0
180.81	-0.22
181.197	0.36
181.583	-0.22
181.97	-0.07
182.356	-1.09
182.743	-0
183.129	0.04
183.515	0.41
183.901	-0
184.288	0.24
184.674	-0
185.06	-0.83
185.446	-0
185.832	-0
186.218	0.12
186.604	-0
186.99	-0.48
187.376	2.48
187.762	-0
188.148	0.22
188.534	-0.39
188.92	0.03
189.305	-0
189.691	0.16
190.077	0.11
190.463	0.03
190.848	0.05
191.234	0.06
191.619	0.15
192.005	0.21
192.391	0.19
192.776	0.23
193.161	0.18
193.547	0.14
193.932	0.2
194.318	0.1
194.703	0.37
195.088	0.22
195.473	0.21
195.859	0.11
196.244	0.17
196.629	0.13
197.014	0.13
197.399	0.17
197.784	0.09
198.169	0.22
198.554	0.16
198.939	0.08
199.324	0.08
199.709	0.05
200.094	0.04
200.478	0.07
200.863	0.29
201.248	0.21
201.633	0.05
202.017	0.23
202.402	0.37
202.787	0.1
203.171	0.17
203.556	0.24
203.94	0.21
204.325	0.27
204.709	0.26
205.093	0.09
205.478	0.19
205.862	-0.01
206.246	0.18
206.631	0.05
207.015	0.1
207.399	0.24
207.783	0.17
208.167	0.16
208.551	0.24
208.935	0.19
209.319	0.2
209.703	0.11
210.087	0.31
210.471	0.16
210.855	0.12
211.239	0.19
211.623	0.28
212.007	0.19
212.39	0.27
212.774	0.14
213.158	0.22
213.541	0.21
213.925	0.21
214.309	0.21
214.692	0.24
215.076	0.18
215.459	0.2
215.842	0.19
216.226	0.41
216.609	0.38
216.993	0.2
217.376	0.59
217.759	0.2
218.142	0.3
218.525	0.31
218.909	0.27
219.292	0.35
219.675	0.52
220.058	0.38
220.441	0.39
220.824	0.53
221.207	0.46
221.59	0.51
221.973	0.52
222.355	0.54
222.738	0.87
223.121	0.68
223.504	0.58
223.886	0.79
224.269	0.82
224.652	0.75
225.034	0.86
225.417	0.63
225.799	0.89
226.182	0.72
226.564	0.89
226.947	0.8
227.329	0.83
227.711	0.92
228.094	0.98
228.476	0.81
228.858	0.88
229.24	0.8
229.623	0.91
230.005	0.94
230.387	0.85
230.769	0.93
231.151	0.91
231.533	0.93
231.915	0.94
232.297	1.17
232.679	0.99
233.061	0.95
233.442	1.06
233.824	1.1
234.206	0.98
234.588	1.03
234.969	1.04
235.351	0.94
235.733	0.97
236.114	1.15
236.496	1.08
236.877	1.07
237.259	1.03
237.64	1.16
238.022	0.97
238.403	1.01
238.784	0.92
239.165	0.97
239.547	1.09
239.928	1.04
240.309	0.97
240.69	1.06
241.071	1.06
241.452	1.18
241.834	1.18
242.215	1.14
242.595	1.08
242.976	1.11
243.357	1.04
243.738	1.01
244.119	1.27
244.5	1.1
244.881	1.15
245.261	1.38
245.642	1.22
246.023	1.17
246.403	1.06
246.784	1.2
247.164	1.25
247.545	1.22
247.925	1.26
248.306	1.23
248.686	1.47
249.067	1.25
249.447	1.34
249.827	1.51
250.207	1.34
250.588	1.26
250.968	1.52
251.348	1.32
251.728	1.46
252.108	1.3
252.488	1.28
252.868	1.47
253.248	1.49
253.628	1.46
254.008	1.56
254.388	1.39
254.768	1.45
255.147	1.3
255.527	1.35
255.907	1.27
256.287	1.49
256.666	1.44
257.046	1.43
257.425	1.65
257.805	1.45
258.184	1.35
258.564	1.41
258.943	1.42
259.323	1.51
259.702	1.56
260.081	1.52
260.461	1.5
260.84	1.57
261.219	1.71
261.598	1.49
261.977	1.4
262.356	1.43
262.736	1.48
263.115	1.58
263.494	1.47
263.873	1.58
264.251	1.6
264.63	1.51
265.009	1.5
265.388	1.35
265.767	1.39
266.145	1.48
266.524	1.41
266.903	1.39
267.281	1.38
267.66	1.44
268.039	1.37
268.417	1.43
268.796	1.39
269.174	1.59
269.552	1.27
269.931	1.44
270.309	1.48
270.687	1.64
271.066	1.61
271.444	1.34
271.822	1.44
272.2	1.3
272.578	1.4
272.956	1.43
273.334	1.35
273.712	1.31
274.09	1.38
274.468	1.39
274.846	1.27
275.224	1.32
275.602	1.44
275.98	1.75
276.357	1.44
276.735	1.53
277.113	1.31
277.49	1.41
277.868	1.28
278.246	1.26
278.623	1.29
279.001	1.29
279.378	1.36
279.756	1.54
280.133	1.52
280.51	1.41
280.888	1.5
281.265	1.45
281.642	1.47
282.019	1.69
282.396	1.53
282.773	1.52
283.151	1.63
283.528	1.39
283.905	1.46
284.282	1.6
284.659	1.49
285.035	1.44
285.412	1.43
285.789	1.4
286.166	1.48
286.543	1.41
286.919	1.65
287.296	1.29
287.673	1.6
288.049	1.48
288.426	1.68
288.802	1.54
289.179	1.52
289.555	1.61
289.932	1.63
290.308	1.35
290.684	1.41
291.061	1.36
291.437	1.55
291.813	1.57
292.189	1.37
292.565	1.44
292.942	1.46
293.318	1.31
293.694	1.44
294.07	1.27
294.446	1.42
294.822	1.63
295.197	1.45
295.573	1.46
295.949	1.38
296.325	1.55
296.701	1.63
297.076	1.6
297.452	1.5
297.828	1.47
298.203	1.58
298.579	1.49
298.954	1.63
299.33	1.56
299.705	1.53
300.081	1.52
300.456	1.6
300.831	1.52
301.206	1.45
301.582	1.65
301.957	1.51
302.332	1.57
302.707	1.46
303.082	1.55
303.457	1.59
303.832	1.38
304.207	1.42
304.582	1.54
304.957	1.52
305.332	1.59
305.707	1.62
306.082	1.47
306.456	1.58
306.831	1.53
307.206	1.48
307.58	1.65
307.955	1.49
308.33	1.49
308.704	1.42
309.079	1.4
309.453	1.71
309.828	1.55
310.202	1.45
310.576	1.5
310.951	1.6
311.325	1.51
311.699	1.42
312.073	1.38
312.447	1.46
312.821	1.44
313.196	1.5
313.57	1.53
313.944	1.52
314.317	1.5
314.691	1.54
315.065	1.68
315.439	1.55
315.813	1.51
316.187	1.42
316.56	1.54
316.934	1.49
317.308	1.38
317.681	1.55
318.055	1.48
318.428	1.53
318.802	1.53
319.175	1.53
319.549	1.4
319.922	1.33
320.295	1.49
320.669	1.58
321.042	1.56
321.415	1.81
321.788	1.45
322.162	1.38
322.535	1.49
322.908	1.53
323.281	1.47
323.654	1.91
324.027	1.38
324.4	1.76
324.773	1.45
325.145	1.47
325.518	1.4
325.891	1.39
326.264	1.7
326.636	1.43
327.009	1.54
327.382	1.42
327.754	1.59
328.127	1.42
328.499	1.68
328.872	1.48
329.244	1.45
329.616	1.44
329.989	1.47
330.361	1.48
330.733	1.49
331.106	1.49
331.478	1.64
331.85	1.63
332.222	1.42
332.594	1.57
332.966	1.56
333.338	1.63
333.71	1.67
334.082	1.63
334.454	1.55
334.826	1.59
335.197	1.51
335.569	1.45
335.941	1.46
336.312	1.48
336.684	1.52
337.056	1.54
337.427	1.55
337.799	1.56
338.17	1.43
338.542	1.46
338.913	1.53
339.284	1.66
339.656	1.6
340.027	1.58
340.398	1.51
340.769	1.57
341.141	1.76
341.512	1.6
341.883	1.61
342.254	1.48
342.625	1.77
342.996	1.65
343.367	1.5
343.738	1.61
344.108	1.62
344.479	1.78
344.85	1.53
345.221	1.55
345.591	1.43
345.962	1.56
346.333	1.48
346.703	1.26
347.074	1.46
347.444	1.35
347.815	1.41
348.185	1.49
348.556	1.39
348.926	1.37
349.296	1.39
349.666	1.39
350.037	1.36
350.407	1.39
350.777	1.38
351.147	1.47
351.517	1.32
351.887	1.33
352.257	1.4
352.627	1.39
352.997	1.34
353.367	1.55
353.737	1.49
354.106	1.4
354.476	1.39
354.846	1.39
355.216	1.36
355.585	1.36
355.955	1.33
356.324	1.36
356.694	1.3
357.063	1.37
357.433	1.27
357.802	1.29
358.171	1.41
358.541	1.3
358.91	1.35
359.279	1.32
359.648	1.22
360.017	1.3
360.387	1.35
360.756	1.21
361.125	1.3
361.494	1.29
361.863	1.18
362.231	1.29
362.6	1.14
362.969	1.2
363.338	1.18
363.707	1.21
364.075	1.21
364.444	1.07
364.813	1.16
365.181	1.1
365.55	1.12
365.918	1.15
366.287	1.15
366.655	1.16
367.024	1.11
367.392	1.15
367.76	1.11
368.128	1.11
368.497	1.06
368.865	1.06
369.233	1.09
369.601	1.09
369.969	1.08
370.337	1.09
370.705	1.06
371.073	1.07
371.441	1.07
371.809	1.06
372.177	1.08
372.544	1.04
372.912	1.08
373.28	1.1
373.647	1.07
374.015	1.09
374.383	1.1
374.75	1.15
375.118	1.07
375.485	1.09
375.853	1.08
376.22	1.07
376.587	1.06
376.955	1.15
377.322	1.09
377.689	1.07
378.056	1.05
378.423	1.07
378.79	1.08
379.157	1.11
379.524	1.07
379.891	1.03
380.258	1.12
380.625	1.06
380.992	1.09
381.359	1.17
381.726	1.16
382.092	1.14
382.459	1.13
382.826	1.12
383.192	1.1
383.559	1.1
383.925	1.12
384.292	1.16
384.658	1.19
385.025	1.16
385.391	1.19
385.757	1.15
386.123	1.21
386.49	1.22
386.856	1.19
387.222	1.17
387.588	1.17
387.954	1.26
388.32	1.21
388.686	1.24
389.052	1.18
389.418	1.2
389.784	1.26
390.15	1.18
390.515	1.13
390.881	1.31
391.247	1.2
391.613	1.22
391.978	1.13
392.344	1.25
392.709	1.23
393.075	1.23
393.44	1.19
393.806	1.2
394.171	1.18
394.536	1.22
394.902	1.16
395.267	1.11
395.632	1.15
395.997	1.12
396.362	1.12
396.727	1.11
397.092	1.2
397.457	1.18
397.822	1.23
398.187	1.21
398.552	1.15
398.917	1.14
399.282	1.11
399.646	1.12
400.011	1.2
400.376	1.07
400.74	1.13
401.105	1.11
401.47	1.1
401.834	1.06
402.199	1.04
402.563	1.08
402.927	1.06
403.292	1.08
403.656	1.05
404.02	1.05
404.384	1.11
404.749	1.04
405.113	1.04
405.477	1.05
405.841	1.03
406.205	1.04
406.569	0.98
406.933	1
407.296	0.97
407.66	1.03
408.024	0.98
408.388	1
408.752	0.93
409.115	1.01
409.479	0.99
409.842	0.96
410.206	0.95
410.569	0.92
410.933	0.95
411.296	0.91
411.66	0.93
412.023	0.87
412.386	0.92
412.749	0.91
413.113	0.89
413.476	0.89
413.839	0.89
414.202	0.91
414.565	0.84
414.928	0.85
415.291	0.84
415.654	0.87
416.017	0.85
416.38	0.84
416.742	0.86
417.105	0.82
417.468	0.85
417.83	0.84
418.193	0.87
418.556	0.81
418.918	0.8
419.281	0.82
419.643	0.84
420.005	0.85
420.368	0.85
420.73	0.82
421.092	0.83
421.455	0.83
421.817	0.77
422.179	0.79
422.541	0.81
422.903	0.83
423.265	0.82
423.627	0.81
423.989	0.78
424.351	0.79
424.713	0.82
425.075	0.77
425.436	0.75
425.798	0.76
426.16	0.76
426.521	0.76
426.883	0.78
427.245	0.78
427.606	0.75
427.967	0.74
428.329	0.76
428.69	0.77
429.052	0.77
429.413	0.76
429.774	0.77
430.135	0.74
430.497	0.75
430.858	0.74
431.219	0.75
431.58	0.73
431.941	0.75
432.302	0.73
432.663	0.74
433.024	0.74
433.384	0.74
433.745	0.7
434.106	0.73
434.467	0.71
434.827	0.73
435.188	0.72
435.548	0.73
435.909	0.73
436.269	0.74
436.63	0.72
436.99	0.71
437.351	0.68
437.711	0.72
438.071	0.69
438.431	0.69
438.792	0.7
439.152	0.68
439.512	0.69
439.872	0.67
440.232	0.71
440.592	0.69
440.952	0.67
441.312	0.65
441.671	0.66
442.031	0.66
442.391	0.65
442.751	0.66
443.11	0.64
443.47	0.64
443.83	0.64
444.189	0.64
444.549	0.64
444.908	0.63
445.267	0.63
445.627	0.64
445.986	0.61
446.345	0.61
446.705	0.61
447.064	0.61
447.423	0.61
447.782	0.59
448.141	0.59
448.5	0.58
448.859	0.58
449.218	0.57
449.577	0.6
449.936	0.59
450.295	0.59
450.653	0.58
451.012	0.56
451.371	0.57
451.729	0.57
452.088	0.57
452.447	0.57
452.805	0.57
453.163	0.56
453.522	0.56
453.88	0.55
454.239	0.54
454.597	0.53
454.955	0.54
455.313	0.54
455.671	0.52
456.029	0.52
456.388	0.52
456.746	0.52
457.104	0.51
457.461	0.5
457.819	0.5
458.177	0.49
458.535	0.48
458.893	0.49
459.25	0.48
459.608	0.47
459.966	0.46
460.323	0.46
460.681	0.46
461.038	0.45
461.396	0.45
461.753	0.45
462.111	0.43
462.468	0.43
462.825	0.43
463.182	0.42
463.54	0.42
463.897	0.42
464.254	0.42
464.611	0.41
464.968	0.4
465.325	0.4
465.682	0.4
466.039	0.39
466.395	0.39
466.752	0.38
467.109	0.38
467.466	0.38
467.822	0.38
468.179	0.37
468.535	0.37
468.892	0.36
469.248	0.36
469.605	0.35
469.961	0.34
470.318	0.36
470.674	0.35
471.03	0.34
471.386	0.34
471.743	0.32
472.099	0.33
472.455	0.32
472.811	0.32
473.167	0.32
473.523	0.31
473.879	0.3
474.235	0.31
474.59	0.29
474.946	0.29
475.302	0.3
475.657	0.29
476.013	0.29
476.369	0.28
476.724	0.29
477.08	0.29
477.435	0.27
477.791	0.28
478.146	0.27
478.501	0.27
478.857	0.27
479.212	0.26
479.567	0.26
479.922	0.25
480.277	0.25
480.632	0.24
480.987	0.25
481.342	0.24
481.697	0.23
482.052	0.24
482.407	0.23
482.762	0.23
483.116	0.23
483.471	0.22
483.826	0.21
484.18	0.22
484.535	0.21
484.89	0.21
485.244	0.21
485.598	0.21
485.953	0.21
486.307	0.2
486.661	0.2
487.016	0.2
487.37	0.2
487.724	0.2
488.078	0.2
488.432	0.19
488.786	0.19
489.14	0.19
489.494	0.18
489.848	0.18
490.202	0.18
490.556	0.19
490.91	0.18
491.263	0.17
491.617	0.18
491.971	0.18
492.324	0.17
492.678	0.18
493.031	0.17
493.385	0.17
493.738	0.17
494.091	0.17
494.445	0.17
494.798	0.17
495.151	0.16
495.504	0.17
495.857	0.17
496.21	0.16
496.564	0.17
496.916	0.17
497.269	0.16
497.622	0.17
497.975	0.16
498.328	0.16
498.681	0.16
499.033	0.15
499.386	0.15
499.739	0.15
500.091	0.14
500.444	0.15
500.796	0.15
501.149	0.14
501.501	0.14
501.854	0.15
502.206	0.15
502.558	0.14
502.91	0.14
503.263	0.15
503.615	0.14
503.967	0.14
504.319	0.15
504.671	0.14
505.023	0.14
505.375	0.14
505.726	0.14
506.078	0.14
506.43	0.14
506.782	0.13
507.133	0.14
507.485	0.14
507.837	0.15
508.188	0.14
508.54	0.14
508.891	0.15
509.243	0.14
509.594	0.14
509.945	0.14
510.296	0.14
510.648	0.14
510.999	0.13
511.35	0.14
511.701	0.14
512.052	0.14
512.403	0.14
512.754	0.13
513.105	0.13
513.456	0.13
513.807	0.13
514.157	0.14
514.508	0.14
514.859	0.13
515.209	0.14
515.56	0.15
515.91	0.13
516.261	0.14
516.611	0.13
516.962	0.14
517.312	0.14
517.662	0.14
518.013	0.14
518.363	0.14
518.713	0.14
519.063	0.14
519.413	0.14
519.763	0.13
520.113	0.14
520.463	0.15
520.813	0.15
521.163	0.15
521.512	0.14
521.862	0.14
522.212	0.14
522.562	0.15
522.911	0.14
523.261	0.14
523.61	0.14
523.96	0.14
524.309	0.14
524.658	0.14
525.008	0.14
525.357	0.14
525.706	0.15
526.056	0.14
526.405	0.14
526.754	0.14
527.103	0.14
527.452	0.14
527.801	0.14
528.15	0.14
528.499	0.15
528.847	0.15
529.196	0.15
529.545	0.15
529.893	0.15
530.242	0.15
530.591	0.16
530.939	0.15
531.288	0.15
531.636	0.16
531.985	0.15
532.333	0.15
532.681	0.15
533.029	0.15
533.378	0.15
533.726	0.15
534.074	0.15
534.422	0.14
534.77	0.14
535.118	0.14
535.466	0.15
535.814	0.15
536.162	0.15
536.509	0.15
536.857	0.15
537.205	0.16
537.552	0.15
537.9	0.15
538.248	0.15
538.595	0.16
538.943	0.16
539.29	0.15
539.637	0.15
539.985	0.15
540.332	0.15
540.679	0.15
541.026	0.15
541.373	0.16
541.721	0.14
542.068	0.15
542.415	0.15
542.762	0.14
543.108	0.14
543.455	0.15
543.802	0.15
544.149	0.14
544.496	0.15
544.842	0.14
545.189	0.14
545.535	0.14
545.882	0.14
546.228	0.14
546.575	0.14
546.921	0.14
547.267	0.14
547.614	0.14
547.96	0.14
548.306	0.14
548.652	0.14
548.998	0.15
549.344	0.14
549.69	0.14
550.036	0.14
550.382	0.14
550.728	0.15
551.074	0.15
551.42	0.15
551.765	0.15
552.111	0.16
552.457	0.16
552.802	0.15
553.148	0.16
553.493	0.15
553.839	0.14
554.184	0.15
554.529	0.14
554.875	0.15
555.22	0.16
555.565	0.15
555.91	0.15
556.255	0.16
556.6	0.16
556.945	0.14
557.29	0.15
557.635	0.14
557.98	0.15
558.325	0.15
558.67	0.15
559.014	0.15
559.359	0.16
559.704	0.15
560.048	0.14
560.393	0.15
560.737	0.14
561.082	0.15
561.426	0.15
561.77	0.15
562.115	0.14
562.459	0.15
562.803	0.15
563.147	0.15
563.491	0.16
563.835	0.15
564.179	0.15
564.523	0.15
564.867	0.15
565.211	0.15
565.555	0.15
565.899	0.16
566.242	0.16
566.586	0.15
566.93	0.15
567.273	0.16
567.617	0.16
567.96	0.16
568.304	0.15
568.647	0.15
568.99	0.16
569.334	0.17
569.677	0.16
570.02	0.16
570.363	0.16
570.706	0.16
571.049	0.16
571.392	0.16
571.735	0.15
572.078	0.16
572.421	0.16
572.764	0.16
573.106	0.16
573.449	0.15
573.792	0.15
574.134	0.16
574.477	0.16
574.819	0.15
575.162	0.15
575.504	0.15
575.847	0.15
576.189	0.16
576.531	0.15
576.873	0.15
577.215	0.15
577.558	0.16
577.9	0.15
578.242	0.15
578.584	0.15
578.926	0.15
579.267	0.15
579.609	0.15
579.951	0.15
580.293	0.15
580.634	0.15
580.976	0.15
581.318	0.15
581.659	0.14
582.001	0.15
582.342	0.15
582.683	0.16
583.025	0.15
583.366	0.15
583.707	0.15
584.049	0.16
584.39	0.15
584.731	0.15
585.072	0.15
585.413	0.16
585.754	0.16
586.095	0.16
586.435	0.15
586.776	0.15
587.117	0.15
587.458	0.16
587.798	0.15
588.139	0.15
588.48	0.15
588.82	0.15
589.161	0.15
589.501	0.15
589.841	0.15
590.182	0.15
590.522	0.14
590.862	0.15
591.202	0.15
591.542	0.15
591.882	0.15
592.222	0.15
592.562	0.14
592.902	0.14
593.242	0.15
593.582	0.15
593.922	0.15
594.261	0.14
594.601	0.14
594.941	0.15
595.28	0.15
595.62	0.15
595.959	0.14
596.299	0.15
596.638	0.15
596.977	0.15
597.317	0.16
597.656	0.14
597.995	0.15
598.334	0.16
598.673	0.15
599.012	0.15
599.351	0.16
599.69	0.15
600.029	0.16
600.368	0.16
600.707	0.16
601.046	0.16
601.384	0.16
601.723	0.17
602.061	0.15
602.4	0.16
602.738	0.15
603.077	0.15
603.415	0.15
603.754	0.15
604.092	0.15
604.43	0.15
604.768	0.15
605.107	0.15
605.445	0.15
605.783	0.15
606.121	0.15
606.459	0.15
606.796	0.15
607.134	0.14
607.472	0.14
607.81	0.15
608.148	0.14
608.485	0.15
608.823	0.15
609.16	0.15
609.498	0.15
609.835	0.14
610.173	0.14
610.51	0.15
610.847	0.15
611.185	0.15
611.522	0.15
611.859	0.15
612.196	0.15
612.533	0.15
612.87	0.15
613.207	0.16
613.544	0.15
613.881	0.16
614.217	0.16
614.554	0.15
614.891	0.15
615.228	0.16
615.564	0.16
615.901	0.15
616.237	0.15
616.574	0.16
616.91	0.16
617.246	0.16
617.583	0.16
617.919	0.16
618.255	0.16
618.591	0.16
618.927	0.16
619.263	0.16
619.599	0.16
619.935	0.15
620.271	0.16
620.607	0.16
620.943	0.16
621.279	0.17
621.614	0.16
621.95	0.16
622.286	0.15
622.621	0.15
622.957	0.16
623.292	0.15
623.627	0.15
623.963	0.15
624.298	0.15
624.633	0.14
624.968	0.14
625.304	0.15
625.639	0.15
625.974	0.15
626.309	0.14
626.644	0.14
626.979	0.15
627.313	0.16
627.648	0.16
627.983	0.15
628.318	0.14
628.652	0.14
628.987	0.15
629.321	0.15
629.656	0.14
629.99	0.14
630.325	0.14
630.659	0.14
630.993	0.13
631.327	0.14
631.662	0.13
631.996	0.13
632.33	0.13
632.664	0.14
632.998	0.13
633.332	0.13
633.666	0.14
633.999	0.14
634.333	0.13
634.667	0.13
635.001	0.12
635.334	0.13
635.668	0.13
636.001	0.13
636.335	0.12
636.668	0.13
637.001	0.12
637.335	0.13
637.668	0.13
638.001	0.12
638.334	0.13
638.668	0.12
639.001	0.13
639.334	0.12
639.667	0.12
639.999	0.13
640.332	0.13
640.665	0.13
640.998	0.13
641.331	0.13
641.663	0.13
641.996	0.13
642.328	0.13
642.661	0.14
642.993	0.13
643.326	0.13
643.658	0.13
643.99	0.13
644.323	0.13
644.655	0.13
644.987	0.13
645.319	0.14
645.651	0.14
645.983	0.13
646.315	0.14
646.647	0.14
646.979	0.15
647.31	0.14
647.642	0.14
647.974	0.14
648.305	0.14
648.637	0.13
648.968	0.14
649.3	0.14
649.631	0.13
649.963	0.13
650.294	0.13
650.625	0.13
650.957	0.13
651.288	0.14
651.619	0.14
651.95	0.13
652.281	0.13
652.612	0.13
652.943	0.13
653.274	0.14
653.604	0.13
653.935	0.13
654.266	0.13
654.596	0.13
654.927	0.12
655.258	0.14
655.588	0.14
655.918	0.14
656.249	0.12
656.579	0.12
656.909	0.13
657.24	0.12
657.57	0.13
657.9	0.13
658.23	0.13
658.56	0.12
658.89	0.13
659.22	0.12
659.55	0.13
659.88	0.13
660.209	0.13
660.539	0.13
660.869	0.13
661.198	0.12
661.528	0.13
661.857	0.13
662.187	0.14
662.516	0.13
662.846	0.12
663.175	0.13
663.504	0.13
663.833	0.13
664.163	0.12
664.492	0.12
664.821	0.13
665.15	0.12
665.479	0.12
665.807	0.12
666.136	0.12
666.465	0.12
666.794	0.12
667.122	0.12
667.451	0.12
667.78	0.12
668.108	0.13
668.437	0.13
668.765	0.13
669.093	0.13
669.422	0.12
669.75	0.12
670.078	0.13
670.406	0.12
670.734	0.13
671.062	0.13
671.39	0.13
671.718	0.14
672.046	0.13
672.374	0.12
672.702	0.13
673.029	0.13
673.357	0.12
673.685	0.13
674.012	0.12
674.34	0.12
674.667	0.13
674.995	0.12
675.322	0.13
675.649	0.12
675.977	0.12
676.304	0.12
676.631	0.12
676.958	0.12
677.285	0.12
677.612	0.12
677.939	0.12
678.266	0.12
678.593	0.12
678.92	0.12
679.246	0.12
679.573	0.12
679.9	0.11
680.226	0.12
680.553	0.11
680.879	0.12
681.206	0.12
681.532	0.12
681.858	0.12
682.184	0.11
682.511	0.12
682.837	0.11
683.163	0.12
683.489	0.12
683.815	0.12
684.141	0.12
684.467	0.12
684.793	0.12
685.118	0.11
685.444	0.12
685.77	0.12
686.095	0.12
686.421	0.12
686.746	0.11
687.072	0.12
687.397	0.11
687.723	0.12
688.048	0.11
688.373	0.1
688.698	0.11
689.023	0.11
689.349	0.11
689.674	0.11
689.999	0.11
690.323	0.1
690.648	0.1
690.973	0.1
691.298	0.11
691.623	0.1
691.947	0.1
692.272	0.1
692.596	0.1
692.921	0.11
693.245	0.1
693.57	0.11
693.894	0.1
694.218	0.11
694.543	0.1
694.867	0.11
695.191	0.1
695.515	0.11
695.839	0.11
696.163	0.1
696.487	0.11
696.811	0.1
697.135	0.11
697.458	0.11
697.782	0.11
698.106	0.11
698.429	0.11
698.753	0.1
699.076	0.11
699.4	0.1
699.723	0.11
700.046	0.1
700.37	0.12
700.693	0.11
701.016	0.11
701.339	0.11
701.662	0.12
701.985	0.1
702.308	0.1
702.631	0.11
702.954	0.11
703.277	0.1
703.599	0.1
703.922	0.09
704.245	0.1
704.567	0.09
704.89	0.09
705.212	0.1
705.535	0.09
705.857	0.1
706.179	0.09
706.502	0.09
706.824	0.08
707.146	0.08
707.468	0.09
707.79	0.09
708.112	0.09
708.434	0.09
708.756	0.09
709.078	0.1
709.399	0.08
709.721	0.09
710.043	0.09
710.364	0.09
710.686	0.1
711.007	0.09
711.329	0.1
711.65	0.09
711.972	0.09
712.293	0.09
712.614	0.1
712.935	0.1
713.256	0.1
713.577	0.1
713.898	0.1
714.219	0.1
714.54	0.1
714.861	0.09
715.182	0.1
715.503	0.1
715.823	0.1
716.144	0.09
716.464	0.09
716.785	0.09
717.105	0.09
717.426	0.1
717.746	0.09
718.066	0.08
718.387	0.09
718.707	0.08
719.027	0.09
719.347	0.08
719.667	0.09
719.987	0.08
720.307	0.08
720.627	0.08
720.947	0.08
721.266	0.08
721.586	0.08
721.906	0.08
722.225	0.07
722.545	0.08
722.864	0.07
723.184	0.08
723.503	0.09
