Data from 12-12-AQDScycling_Absorbance__656__00656.txt Node

Date: Tue Dec 12 13:40:44 EST 2023
User: kyuminlee
Spectrometer: FLMS00943
Trigger mode: 0
Integration Time (sec): 1.000000E-1
Scans to average: 1
Electric dark correction enabled: true
Nonlinearity correction enabled: false
Boxcar width: 0
XAxis mode: Wavelengths
Number of Pixels in Spectrum: 2048
>>>>>Begin Spectral Data<<<<<
179.651	-0
180.037	-0
180.424	-0
180.81	-0
181.197	0.23
181.583	0.02
181.97	-0.59
182.356	-1.27
182.743	-0
183.129	0.37
183.515	1.48
183.901	-0
184.288	-0
184.674	-0
185.06	-0
185.446	-0.28
185.832	-0
186.218	0.37
186.604	-0
186.99	-0.14
187.376	0.17
187.762	-0.14
188.148	0.16
188.534	-0.26
188.92	0.05
189.305	0.07
189.691	0.2
190.077	0.11
190.463	0.06
190.848	0.11
191.234	0.13
191.619	0.09
192.005	-0
192.391	0.1
192.776	0.02
193.161	0.26
193.547	0.08
193.932	-0.04
194.318	0.05
194.703	0.08
195.088	0.14
195.473	0.08
195.859	0.18
196.244	0.28
196.629	0.2
197.014	0.03
197.399	0.08
197.784	0.16
198.169	0.11
198.554	0.22
198.939	0.1
199.324	0.08
199.709	0.02
200.094	0.09
200.478	0
200.863	0.12
201.248	0.19
201.633	0.09
202.017	0.02
202.402	0.24
202.787	0.07
203.171	0.13
203.556	0.25
203.94	0.1
204.325	0.16
204.709	0.08
205.093	0.09
205.478	0.08
205.862	0.03
206.246	0.22
206.631	0.14
207.015	0.06
207.399	0.23
207.783	0.08
208.167	0.13
208.551	0.19
208.935	0.21
209.319	0.06
209.703	0.14
210.087	0.1
210.471	-0.06
210.855	0.16
211.239	0.23
211.623	0.16
212.007	0.32
212.39	0.11
212.774	0.16
213.158	0.08
213.541	0.21
213.925	0.15
214.309	0.22
214.692	0.17
215.076	0.07
215.459	0.19
215.842	0.12
216.226	0.19
216.609	0.33
216.993	0.24
217.376	0.38
217.759	0.19
218.142	0.42
218.525	0.43
218.909	0.49
219.292	0.35
219.675	0.35
220.058	0.37
220.441	0.43
220.824	0.45
221.207	0.48
221.59	0.46
221.973	0.47
222.355	0.59
222.738	0.68
223.121	0.48
223.504	0.6
223.886	0.62
224.269	0.67
224.652	0.65
225.034	0.74
225.417	0.66
225.799	0.73
226.182	0.94
226.564	0.81
226.947	0.66
227.329	0.77
227.711	0.84
228.094	0.87
228.476	0.93
228.858	0.81
229.24	0.79
229.623	0.92
230.005	0.86
230.387	0.86
230.769	0.82
231.151	0.88
231.533	0.88
231.915	0.89
232.297	0.89
232.679	0.89
233.061	0.96
233.442	1.05
233.824	1.08
234.206	1.09
234.588	1.01
234.969	1
235.351	1.01
235.733	1.1
236.114	1.26
236.496	1.02
236.877	1.04
237.259	1.05
237.64	1.16
238.022	0.94
238.403	1.02
238.784	1
239.165	0.96
239.547	0.98
239.928	1.21
240.309	1.01
240.69	1.01
241.071	1.1
241.452	1.11
241.834	1.07
242.215	1.11
242.595	1.03
242.976	1.01
243.357	1.07
243.738	1.11
244.119	1.22
244.5	1.26
244.881	1.26
245.261	1.19
245.642	1.07
246.023	1.13
246.403	1.16
246.784	1.23
247.164	1.3
247.545	1.21
247.925	1.23
248.306	1.15
248.686	1.4
249.067	1.22
249.447	1.26
249.827	1.48
250.207	1.4
250.588	1.26
250.968	1.56
251.348	1.32
251.728	1.27
252.108	1.31
252.488	1.39
252.868	1.33
253.248	1.42
253.628	1.42
254.008	1.67
254.388	1.39
254.768	1.31
255.147	1.38
255.527	1.58
255.907	1.36
256.287	1.3
256.666	1.4
257.046	1.46
257.425	1.43
257.805	1.32
258.184	1.31
258.564	1.29
258.943	1.37
259.323	1.45
259.702	1.53
260.081	1.34
260.461	1.45
260.84	1.36
261.219	1.56
261.598	1.43
261.977	1.41
262.356	1.52
262.736	1.46
263.115	1.57
263.494	1.38
263.873	1.37
264.251	1.49
264.63	1.52
265.009	1.34
265.388	1.35
265.767	1.33
266.145	1.41
266.524	1.36
266.903	1.47
267.281	1.31
267.66	1.45
268.039	1.48
268.417	1.35
268.796	1.43
269.174	1.45
269.552	1.35
269.931	1.4
270.309	1.33
270.687	1.48
271.066	1.48
271.444	1.34
271.822	1.56
272.2	1.46
272.578	1.52
272.956	1.49
273.334	1.38
273.712	1.42
274.09	1.41
274.468	1.47
274.846	1.29
275.224	1.34
275.602	1.53
275.98	1.35
276.357	1.43
276.735	1.52
277.113	1.36
277.49	1.35
277.868	1.27
278.246	1.36
278.623	1.28
279.001	1.31
279.378	1.37
279.756	1.39
280.133	1.58
280.51	1.35
280.888	1.4
281.265	1.42
281.642	1.43
282.019	1.62
282.396	1.41
282.773	1.51
283.151	1.54
283.528	1.5
283.905	1.35
284.282	1.47
284.659	1.45
285.035	1.29
285.412	1.36
285.789	1.45
286.166	1.33
286.543	1.41
286.919	1.45
287.296	1.32
287.673	1.47
288.049	1.39
288.426	1.48
288.802	1.53
289.179	1.5
289.555	1.68
289.932	1.44
290.308	1.37
290.684	1.34
291.061	1.25
291.437	1.71
291.813	1.49
292.189	1.3
292.565	1.24
292.942	1.43
293.318	1.37
293.694	1.5
294.07	1.29
294.446	1.46
294.822	1.45
295.197	1.35
295.573	1.38
295.949	1.42
296.325	1.42
296.701	1.53
297.076	1.69
297.452	1.54
297.828	1.49
298.203	1.56
298.579	1.38
298.954	1.42
299.33	1.43
299.705	1.32
300.081	1.49
300.456	1.36
300.831	1.44
301.206	1.48
301.582	1.47
301.957	1.39
302.332	1.47
302.707	1.33
303.082	1.38
303.457	1.38
303.832	1.38
304.207	1.29
304.582	1.35
304.957	1.44
305.332	1.46
305.707	1.39
306.082	1.38
306.456	1.46
306.831	1.37
307.206	1.4
307.58	1.36
307.955	1.35
308.33	1.31
308.704	1.32
309.079	1.34
309.453	1.55
309.828	1.39
310.202	1.35
310.576	1.34
310.951	1.41
311.325	1.4
311.699	1.44
312.073	1.25
312.447	1.3
312.821	1.27
313.196	1.43
313.57	1.36
313.944	1.28
314.317	1.27
314.691	1.4
315.065	1.36
315.439	1.33
315.813	1.41
316.187	1.28
316.56	1.46
316.934	1.36
317.308	1.3
317.681	1.41
318.055	1.37
318.428	1.43
318.802	1.36
319.175	1.33
319.549	1.38
319.922	1.3
320.295	1.33
320.669	1.49
321.042	1.47
321.415	1.55
321.788	1.35
322.162	1.32
322.535	1.35
322.908	1.49
323.281	1.35
323.654	1.43
324.027	1.3
324.4	1.36
324.773	1.42
325.145	1.39
325.518	1.3
325.891	1.35
326.264	1.49
326.636	1.35
327.009	1.38
327.382	1.44
327.754	1.46
328.127	1.43
328.499	1.43
328.872	1.39
329.244	1.46
329.616	1.34
329.989	1.55
330.361	1.43
330.733	1.35
331.106	1.35
331.478	1.45
331.85	1.29
332.222	1.27
332.594	1.37
332.966	1.46
333.338	1.63
333.71	1.45
334.082	1.45
334.454	1.32
334.826	1.51
335.197	1.45
335.569	1.41
335.941	1.3
336.312	1.44
336.684	1.35
337.056	1.39
337.427	1.41
337.799	1.44
338.17	1.38
338.542	1.47
338.913	1.41
339.284	1.5
339.656	1.4
340.027	1.56
340.398	1.54
340.769	1.38
341.141	1.48
341.512	1.47
341.883	1.46
342.254	1.43
342.625	1.42
342.996	1.45
343.367	1.46
343.738	1.4
344.108	1.36
344.479	1.62
344.85	1.38
345.221	1.45
345.591	1.3
345.962	1.5
346.333	1.38
346.703	1.29
347.074	1.3
347.444	1.28
347.815	1.37
348.185	1.23
348.556	1.23
348.926	1.24
349.296	1.33
349.666	1.26
350.037	1.29
350.407	1.2
350.777	1.3
351.147	1.38
351.517	1.29
351.887	1.31
352.257	1.53
352.627	1.3
352.997	1.28
353.367	1.25
353.737	1.29
354.106	1.4
354.476	1.29
354.846	1.36
355.216	1.4
355.585	1.34
355.955	1.35
356.324	1.42
356.694	1.39
357.063	1.38
357.433	1.26
357.802	1.3
358.171	1.41
358.541	1.4
358.91	1.45
359.279	1.47
359.648	1.31
360.017	1.44
360.387	1.37
360.756	1.29
361.125	1.38
361.494	1.36
361.863	1.35
362.231	1.32
362.6	1.38
362.969	1.36
363.338	1.22
363.707	1.35
364.075	1.36
364.444	1.29
364.813	1.39
365.181	1.35
365.55	1.35
365.918	1.37
366.287	1.37
366.655	1.38
367.024	1.46
367.392	1.37
367.76	1.4
368.128	1.29
368.497	1.29
368.865	1.35
369.233	1.35
369.601	1.4
369.969	1.35
370.337	1.39
370.705	1.36
371.073	1.34
371.441	1.45
371.809	1.35
372.177	1.32
372.544	1.43
372.912	1.43
373.28	1.4
373.647	1.41
374.015	1.49
374.383	1.47
374.75	1.41
375.118	1.33
375.485	1.33
375.853	1.46
376.22	1.4
376.587	1.42
376.955	1.4
377.322	1.41
377.689	1.36
378.056	1.28
378.423	1.33
378.79	1.43
379.157	1.41
379.524	1.36
379.891	1.35
380.258	1.5
380.625	1.5
380.992	1.35
381.359	1.4
381.726	1.64
382.092	1.42
382.459	1.38
382.826	1.43
383.192	1.38
383.559	1.52
383.925	1.49
384.292	1.48
384.658	1.54
385.025	1.37
385.391	1.65
385.757	1.65
386.123	1.53
386.49	1.41
386.856	1.61
387.222	1.47
387.588	1.41
387.954	1.52
388.32	1.54
388.686	1.52
389.052	1.54
389.418	1.74
389.784	1.5
390.15	1.49
390.515	1.39
390.881	1.51
391.247	1.53
391.613	1.54
391.978	1.44
392.344	1.6
392.709	1.56
393.075	1.52
393.44	1.63
393.806	1.44
394.171	1.42
394.536	1.47
394.902	1.5
395.267	1.38
395.632	1.42
395.997	1.38
396.362	1.48
396.727	1.62
397.092	1.41
397.457	1.45
397.822	1.39
398.187	1.54
398.552	1.52
398.917	1.46
399.282	1.44
399.646	1.4
400.011	1.6
400.376	1.37
400.74	1.44
401.105	1.51
401.47	1.57
401.834	1.6
402.199	1.42
402.563	1.39
402.927	1.41
403.292	1.5
403.656	1.39
404.02	1.5
404.384	1.52
404.749	1.44
405.113	1.53
405.477	1.51
405.841	1.46
406.205	1.41
406.569	1.37
406.933	1.38
407.296	1.46
407.66	1.42
408.024	1.39
408.388	1.4
408.752	1.39
409.115	1.41
409.479	1.42
409.842	1.36
410.206	1.27
410.569	1.38
410.933	1.37
411.296	1.26
411.66	1.44
412.023	1.27
412.386	1.37
412.749	1.27
413.113	1.31
413.476	1.26
413.839	1.29
414.202	1.33
414.565	1.29
414.928	1.33
415.291	1.27
415.654	1.23
416.017	1.28
416.38	1.26
416.742	1.33
417.105	1.23
417.468	1.17
417.83	1.27
418.193	1.38
418.556	1.21
418.918	1.2
419.281	1.23
419.643	1.31
420.005	1.22
420.368	1.27
420.73	1.27
421.092	1.27
421.455	1.23
421.817	1.13
422.179	1.17
422.541	1.26
422.903	1.29
423.265	1.25
423.627	1.29
423.989	1.23
424.351	1.22
424.713	1.22
425.075	1.24
425.436	1.21
425.798	1.2
426.16	1.2
426.521	1.19
426.883	1.23
427.245	1.26
427.606	1.19
427.967	1.14
428.329	1.17
428.69	1.2
429.052	1.15
429.413	1.2
429.774	1.17
430.135	1.16
430.497	1.21
430.858	1.19
431.219	1.15
431.58	1.14
431.941	1.15
432.302	1.13
432.663	1.11
433.024	1.22
433.384	1.14
433.745	1.13
434.106	1.19
434.467	1.13
434.827	1.13
435.188	1.17
435.548	1.16
435.909	1.11
436.269	1.17
436.63	1.09
436.99	1.14
437.351	1.06
437.711	1.08
438.071	1.09
438.431	1.08
438.792	1.1
439.152	1.09
439.512	1.05
439.872	1.04
440.232	1.08
440.592	1.09
440.952	1.08
441.312	1
441.671	1.05
442.031	1.05
442.391	1.05
442.751	1.04
443.11	1.01
443.47	1.02
443.83	1.01
444.189	0.99
444.549	0.97
444.908	0.98
445.267	1
445.627	0.97
445.986	0.97
446.345	0.93
446.705	0.96
447.064	0.94
447.423	0.95
447.782	0.95
448.141	0.95
448.5	0.91
448.859	0.9
449.218	0.92
449.577	0.92
449.936	0.91
450.295	0.91
450.653	0.9
451.012	0.9
451.371	0.88
451.729	0.88
452.088	0.9
452.447	0.89
452.805	0.88
453.163	0.87
453.522	0.86
453.88	0.85
454.239	0.86
454.597	0.82
454.955	0.82
455.313	0.82
455.671	0.82
456.029	0.8
456.388	0.8
456.746	0.81
457.104	0.79
457.461	0.76
457.819	0.77
458.177	0.75
458.535	0.74
458.893	0.73
459.25	0.74
459.608	0.72
459.966	0.72
460.323	0.71
460.681	0.7
461.038	0.7
461.396	0.68
461.753	0.68
462.111	0.67
462.468	0.65
462.825	0.63
463.182	0.64
463.54	0.64
463.897	0.63
464.254	0.63
464.611	0.61
464.968	0.61
465.325	0.61
465.682	0.6
466.039	0.59
466.395	0.59
466.752	0.58
467.109	0.57
467.466	0.57
467.822	0.57
468.179	0.54
468.535	0.55
468.892	0.51
469.248	0.51
469.605	0.52
469.961	0.51
470.318	0.52
470.674	0.5
471.03	0.5
471.386	0.5
471.743	0.48
472.099	0.48
472.455	0.47
472.811	0.45
473.167	0.46
473.523	0.45
473.879	0.45
474.235	0.44
474.59	0.43
474.946	0.42
475.302	0.44
475.657	0.41
476.013	0.41
476.369	0.4
476.724	0.41
477.08	0.39
477.435	0.39
477.791	0.39
478.146	0.38
478.501	0.38
478.857	0.37
479.212	0.36
479.567	0.36
479.922	0.35
480.277	0.35
480.632	0.34
480.987	0.34
481.342	0.33
481.697	0.33
482.052	0.32
482.407	0.32
482.762	0.31
483.116	0.31
483.471	0.31
483.826	0.3
484.18	0.3
484.535	0.29
484.89	0.29
485.244	0.29
485.598	0.29
485.953	0.29
486.307	0.28
486.661	0.28
487.016	0.27
487.37	0.28
487.724	0.27
488.078	0.26
488.432	0.26
488.786	0.26
489.14	0.26
489.494	0.25
489.848	0.25
490.202	0.24
490.556	0.25
490.91	0.24
491.263	0.24
491.617	0.24
491.971	0.24
492.324	0.23
492.678	0.24
493.031	0.24
493.385	0.23
493.738	0.23
494.091	0.23
494.445	0.23
494.798	0.22
495.151	0.22
495.504	0.22
495.857	0.22
496.21	0.22
496.564	0.21
496.916	0.21
497.269	0.21
497.622	0.21
497.975	0.2
498.328	0.21
498.681	0.2
499.033	0.2
499.386	0.19
499.739	0.2
500.091	0.19
500.444	0.19
500.796	0.19
501.149	0.19
501.501	0.19
501.854	0.19
502.206	0.19
502.558	0.2
502.91	0.19
503.263	0.19
503.615	0.19
503.967	0.19
504.319	0.19
504.671	0.18
505.023	0.18
505.375	0.19
505.726	0.19
506.078	0.18
506.43	0.17
506.782	0.18
507.133	0.18
507.485	0.19
507.837	0.18
508.188	0.18
508.54	0.18
508.891	0.19
509.243	0.18
509.594	0.18
509.945	0.18
510.296	0.18
510.648	0.18
510.999	0.17
511.35	0.18
511.701	0.17
512.052	0.19
512.403	0.18
512.754	0.17
513.105	0.18
513.456	0.18
513.807	0.18
514.157	0.18
514.508	0.17
514.859	0.17
515.209	0.17
515.56	0.18
515.91	0.17
516.261	0.17
516.611	0.17
516.962	0.18
517.312	0.18
517.662	0.17
518.013	0.17
518.363	0.18
518.713	0.18
519.063	0.19
519.413	0.18
519.763	0.18
520.113	0.18
520.463	0.17
520.813	0.18
521.163	0.18
521.512	0.18
521.862	0.18
522.212	0.18
522.562	0.18
522.911	0.17
523.261	0.17
523.61	0.18
523.96	0.17
524.309	0.18
524.658	0.18
525.008	0.18
525.357	0.18
525.706	0.18
526.056	0.17
526.405	0.18
526.754	0.18
527.103	0.17
527.452	0.17
527.801	0.18
528.15	0.18
528.499	0.18
528.847	0.18
529.196	0.19
529.545	0.19
529.893	0.19
530.242	0.18
530.591	0.19
530.939	0.19
531.288	0.18
531.636	0.19
531.985	0.19
532.333	0.19
532.681	0.19
533.029	0.18
533.378	0.19
533.726	0.18
534.074	0.19
534.422	0.18
534.77	0.19
535.118	0.19
535.466	0.19
535.814	0.19
536.162	0.19
536.509	0.19
536.857	0.19
537.205	0.19
537.552	0.19
537.9	0.19
538.248	0.18
538.595	0.19
538.943	0.19
539.29	0.19
539.637	0.19
539.985	0.19
540.332	0.2
540.679	0.19
541.026	0.19
541.373	0.19
541.721	0.19
542.068	0.19
542.415	0.19
542.762	0.18
543.108	0.18
543.455	0.18
543.802	0.18
544.149	0.17
544.496	0.18
544.842	0.18
545.189	0.18
545.535	0.18
545.882	0.18
546.228	0.18
546.575	0.17
546.921	0.17
547.267	0.18
547.614	0.18
547.96	0.18
548.306	0.17
548.652	0.18
548.998	0.19
549.344	0.18
549.69	0.19
550.036	0.17
550.382	0.18
550.728	0.18
551.074	0.19
551.42	0.19
551.765	0.19
552.111	0.19
552.457	0.19
552.802	0.19
553.148	0.19
553.493	0.18
553.839	0.19
554.184	0.19
554.529	0.18
554.875	0.19
555.22	0.19
555.565	0.19
555.91	0.19
556.255	0.2
556.6	0.19
556.945	0.19
557.29	0.18
557.635	0.2
557.98	0.18
558.325	0.19
558.67	0.19
559.014	0.19
559.359	0.19
559.704	0.19
560.048	0.17
560.393	0.19
560.737	0.17
561.082	0.19
561.426	0.18
561.77	0.18
562.115	0.19
562.459	0.18
562.803	0.2
563.147	0.18
563.491	0.19
563.835	0.19
564.179	0.19
564.523	0.19
564.867	0.18
565.211	0.19
565.555	0.19
565.899	0.2
566.242	0.19
566.586	0.18
566.93	0.19
567.273	0.19
567.617	0.19
567.96	0.18
568.304	0.2
568.647	0.19
568.99	0.19
569.334	0.2
569.677	0.19
570.02	0.2
570.363	0.19
570.706	0.2
571.049	0.19
571.392	0.2
571.735	0.18
572.078	0.2
572.421	0.2
572.764	0.19
573.106	0.19
573.449	0.19
573.792	0.19
574.134	0.19
574.477	0.19
574.819	0.19
575.162	0.19
575.504	0.19
575.847	0.19
576.189	0.19
576.531	0.19
576.873	0.19
577.215	0.19
577.558	0.2
577.9	0.19
578.242	0.19
578.584	0.19
578.926	0.19
579.267	0.2
579.609	0.2
579.951	0.19
580.293	0.2
580.634	0.2
580.976	0.2
581.318	0.18
581.659	0.19
582.001	0.18
582.342	0.19
582.683	0.19
583.025	0.18
583.366	0.18
583.707	0.19
584.049	0.19
584.39	0.18
584.731	0.18
585.072	0.18
585.413	0.19
585.754	0.19
586.095	0.19
586.435	0.19
586.776	0.19
587.117	0.18
587.458	0.18
587.798	0.19
588.139	0.19
588.48	0.18
588.82	0.18
589.161	0.18
589.501	0.19
589.841	0.18
590.182	0.18
590.522	0.18
590.862	0.19
591.202	0.18
591.542	0.18
591.882	0.19
592.222	0.19
592.562	0.19
592.902	0.18
593.242	0.19
593.582	0.19
593.922	0.18
594.261	0.18
594.601	0.18
594.941	0.18
595.28	0.19
595.62	0.19
595.959	0.18
596.299	0.19
596.638	0.18
596.977	0.19
597.317	0.19
597.656	0.19
597.995	0.18
598.334	0.19
598.673	0.19
599.012	0.19
599.351	0.21
599.69	0.18
600.029	0.2
600.368	0.19
600.707	0.19
601.046	0.19
601.384	0.2
601.723	0.2
602.061	0.18
602.4	0.19
602.738	0.2
603.077	0.19
603.415	0.18
603.754	0.19
604.092	0.2
604.43	0.19
604.768	0.19
605.107	0.19
605.445	0.18
605.783	0.19
606.121	0.18
606.459	0.19
606.796	0.19
607.134	0.18
607.472	0.18
607.81	0.19
608.148	0.18
608.485	0.18
608.823	0.18
609.16	0.18
609.498	0.18
609.835	0.18
610.173	0.18
610.51	0.18
610.847	0.18
611.185	0.19
611.522	0.19
611.859	0.18
612.196	0.18
612.533	0.19
612.87	0.19
613.207	0.19
613.544	0.18
613.881	0.19
614.217	0.19
614.554	0.19
614.891	0.19
615.228	0.19
615.564	0.19
615.901	0.19
616.237	0.19
616.574	0.2
616.91	0.2
617.246	0.18
617.583	0.19
617.919	0.19
618.255	0.19
618.591	0.19
618.927	0.19
619.263	0.19
619.599	0.19
619.935	0.19
620.271	0.19
620.607	0.18
620.943	0.19
621.279	0.19
621.614	0.19
621.95	0.19
622.286	0.19
622.621	0.19
622.957	0.18
623.292	0.18
623.627	0.18
623.963	0.18
624.298	0.18
624.633	0.18
624.968	0.18
625.304	0.18
625.639	0.18
625.974	0.18
626.309	0.17
626.644	0.17
626.979	0.18
627.313	0.19
627.648	0.17
627.983	0.18
628.318	0.17
628.652	0.17
628.987	0.17
629.321	0.17
629.656	0.17
629.99	0.16
630.325	0.17
630.659	0.17
630.993	0.16
631.327	0.17
631.662	0.15
631.996	0.16
632.33	0.16
632.664	0.17
632.998	0.16
633.332	0.16
633.666	0.17
633.999	0.17
634.333	0.16
634.667	0.16
635.001	0.15
635.334	0.17
635.668	0.16
636.001	0.16
636.335	0.16
636.668	0.17
637.001	0.15
637.335	0.16
637.668	0.16
638.001	0.15
638.334	0.16
638.668	0.15
639.001	0.16
639.334	0.16
639.667	0.16
639.999	0.16
640.332	0.16
640.665	0.16
640.998	0.16
641.331	0.16
641.663	0.16
641.996	0.16
642.328	0.16
642.661	0.16
642.993	0.16
643.326	0.16
643.658	0.15
643.99	0.15
644.323	0.15
644.655	0.15
644.987	0.15
645.319	0.16
645.651	0.16
645.983	0.16
646.315	0.16
646.647	0.16
646.979	0.16
647.31	0.16
647.642	0.15
647.974	0.15
648.305	0.16
648.637	0.15
648.968	0.16
649.3	0.16
649.631	0.16
649.963	0.15
650.294	0.16
650.625	0.16
650.957	0.16
651.288	0.17
651.619	0.16
651.95	0.16
652.281	0.15
652.612	0.16
652.943	0.16
653.274	0.16
653.604	0.16
653.935	0.16
654.266	0.16
654.596	0.15
654.927	0.15
655.258	0.16
655.588	0.16
655.918	0.15
656.249	0.14
656.579	0.14
656.909	0.15
657.24	0.15
657.57	0.15
657.9	0.15
658.23	0.15
658.56	0.15
658.89	0.15
659.22	0.15
659.55	0.15
659.88	0.15
660.209	0.15
660.539	0.16
660.869	0.15
661.198	0.15
661.528	0.14
661.857	0.15
662.187	0.15
662.516	0.15
662.846	0.14
663.175	0.14
663.504	0.15
663.833	0.14
664.163	0.14
664.492	0.14
664.821	0.15
665.15	0.14
665.479	0.15
665.807	0.14
666.136	0.14
666.465	0.15
666.794	0.15
667.122	0.15
667.451	0.14
667.78	0.15
668.108	0.15
668.437	0.15
668.765	0.15
669.093	0.15
669.422	0.15
669.75	0.15
670.078	0.14
670.406	0.15
670.734	0.15
671.062	0.14
671.39	0.14
671.718	0.15
672.046	0.14
672.374	0.14
672.702	0.14
673.029	0.13
673.357	0.14
673.685	0.14
674.012	0.14
674.34	0.14
674.667	0.14
674.995	0.14
675.322	0.13
675.649	0.13
675.977	0.14
676.304	0.14
676.631	0.14
676.958	0.13
677.285	0.13
677.612	0.13
677.939	0.14
678.266	0.14
678.593	0.14
678.92	0.13
679.246	0.14
679.573	0.13
679.9	0.13
680.226	0.13
680.553	0.13
680.879	0.13
681.206	0.13
681.532	0.13
681.858	0.13
682.184	0.13
682.511	0.14
682.837	0.13
683.163	0.14
683.489	0.13
683.815	0.13
684.141	0.13
684.467	0.14
684.793	0.12
685.118	0.13
685.444	0.13
685.77	0.13
686.095	0.13
686.421	0.12
686.746	0.13
687.072	0.13
687.397	0.12
687.723	0.13
688.048	0.14
688.373	0.12
688.698	0.13
689.023	0.13
689.349	0.12
689.674	0.12
689.999	0.12
690.323	0.12
690.648	0.12
690.973	0.11
691.298	0.12
691.623	0.12
691.947	0.12
692.272	0.12
692.596	0.13
692.921	0.13
693.245	0.12
693.57	0.12
693.894	0.13
694.218	0.13
694.543	0.13
694.867	0.12
695.191	0.13
695.515	0.13
695.839	0.12
696.163	0.12
696.487	0.13
696.811	0.12
697.135	0.13
697.458	0.12
697.782	0.12
698.106	0.13
698.429	0.12
698.753	0.12
699.076	0.12
699.4	0.12
699.723	0.12
700.046	0.12
700.37	0.12
700.693	0.12
701.016	0.12
701.339	0.12
701.662	0.12
701.985	0.12
702.308	0.11
702.631	0.12
702.954	0.11
703.277	0.12
703.599	0.12
703.922	0.11
704.245	0.12
704.567	0.11
704.89	0.12
705.212	0.12
705.535	0.11
705.857	0.1
706.179	0.1
706.502	0.1
706.824	0.1
707.146	0.1
707.468	0.12
707.79	0.11
708.112	0.11
708.434	0.11
708.756	0.11
709.078	0.11
709.399	0.11
709.721	0.1
710.043	0.12
710.364	0.11
710.686	0.11
711.007	0.11
711.329	0.12
711.65	0.11
711.972	0.11
712.293	0.12
712.614	0.11
712.935	0.12
713.256	0.11
713.577	0.12
713.898	0.11
714.219	0.11
714.54	0.11
714.861	0.1
715.182	0.11
715.503	0.1
715.823	0.1
716.144	0.1
716.464	0.1
716.785	0.1
717.105	0.1
717.426	0.1
717.746	0.1
718.066	0.09
718.387	0.09
718.707	0.09
719.027	0.1
719.347	0.09
719.667	0.1
719.987	0.08
720.307	0.09
720.627	0.09
720.947	0.1
721.266	0.09
721.586	0.09
721.906	0.09
722.225	0.08
722.545	0.09
722.864	0.09
723.184	0.1
723.503	0.09
723.823	0.1
724.142	0.09
