Data from 12-12-AQDScycling_Absorbance__895__00895.txt Node

Date: Tue Dec 12 14:40:29 EST 2023
User: kyuminlee
Spectrometer: FLMS00943
Trigger mode: 0
Integration Time (sec): 1.000000E-1
Scans to average: 1
Electric dark correction enabled: true
Nonlinearity correction enabled: false
Boxcar width: 0
XAxis mode: Wavelengths
Number of Pixels in Spectrum: 2048
>>>>>Begin Spectral Data<<<<<
179.651	0.05
180.037	0.05
180.424	0.05
180.81	-0.39
181.197	0.3
181.583	-0.19
181.97	-0.18
182.356	-0
182.743	-0
183.129	-0.06
183.515	0.11
183.901	-2.55
184.288	0.37
184.674	-0
185.06	-0
185.446	-0.09
185.832	-0
186.218	-0.1
186.604	0.23
186.99	-0
187.376	0.02
187.762	0.01
188.148	0.76
188.534	-0.46
188.92	0.07
189.305	0.15
189.691	0.21
190.077	0.2
190.463	0.12
190.848	0.06
191.234	-0.08
191.619	-0.07
192.005	-0
192.391	0.2
192.776	0.06
193.161	0.21
193.547	0.1
193.932	0.02
194.318	0.03
194.703	0.31
195.088	0.2
195.473	0.2
195.859	0.09
196.244	0.3
196.629	0.06
197.014	0.21
197.399	0.26
197.784	0.26
198.169	0.21
198.554	0.17
198.939	0.15
199.324	0.22
199.709	0.12
200.094	0.12
200.478	0.12
200.863	0.26
201.248	0.25
201.633	0.16
202.017	0.08
202.402	0.2
202.787	0.04
203.171	0.22
203.556	0.12
203.94	0.11
204.325	0.21
204.709	0.31
205.093	0.12
205.478	0.2
205.862	0.1
206.246	0.13
206.631	0.17
207.015	0.16
207.399	0.22
207.783	0.15
208.167	0.22
208.551	0.22
208.935	0.28
209.319	0.12
209.703	0.04
210.087	0.15
210.471	0.15
210.855	0.08
211.239	0.14
211.623	0.23
212.007	0.39
212.39	0.26
212.774	0.12
213.158	0.05
213.541	0.22
213.925	0.35
214.309	0.26
214.692	0.23
215.076	0.21
215.459	0.15
215.842	0.16
216.226	0.26
216.609	0.33
216.993	0.22
217.376	0.42
217.759	0.22
218.142	0.24
218.525	0.45
218.909	0.5
219.292	0.49
219.675	0.59
220.058	0.41
220.441	0.46
220.824	0.35
221.207	0.55
221.59	0.5
221.973	0.65
222.355	0.6
222.738	0.72
223.121	0.47
223.504	0.52
223.886	0.75
224.269	0.61
224.652	0.68
225.034	0.9
225.417	0.77
225.799	0.87
226.182	1.04
226.564	0.72
226.947	0.86
227.329	0.87
227.711	0.94
228.094	0.88
228.476	1.16
228.858	0.83
229.24	0.83
229.623	0.91
230.005	0.84
230.387	0.99
230.769	0.9
231.151	0.99
231.533	1.03
231.915	0.95
232.297	1.11
232.679	1.03
233.061	0.99
233.442	1.04
233.824	0.98
234.206	1.11
234.588	1.1
234.969	1.22
235.351	0.99
235.733	1.13
236.114	1.12
236.496	1.06
236.877	1.24
237.259	1.11
237.64	1.08
238.022	1.05
238.403	1
238.784	1.02
239.165	0.96
239.547	1.01
239.928	0.91
240.309	1.17
240.69	1.05
241.071	1.32
241.452	1.17
241.834	1.02
242.215	1.14
242.595	1.02
242.976	1.16
243.357	1.18
243.738	1.09
244.119	1.17
244.5	1.05
244.881	1.27
245.261	1.17
245.642	1.18
246.023	1.11
246.403	1.19
246.784	1.32
247.164	1.39
247.545	1.22
247.925	1.31
248.306	1.2
248.686	1.55
249.067	1.37
249.447	1.35
249.827	1.39
250.207	1.4
250.588	1.37
250.968	1.51
251.348	1.24
251.728	1.51
252.108	1.29
252.488	1.44
252.868	1.53
253.248	1.41
253.628	1.55
254.008	1.63
254.388	1.44
254.768	1.35
255.147	1.35
255.527	1.4
255.907	1.37
256.287	1.43
256.666	1.44
257.046	1.41
257.425	1.51
257.805	1.31
258.184	1.32
258.564	1.49
258.943	1.36
259.323	1.6
259.702	1.35
260.081	1.43
260.461	1.47
260.84	1.43
261.219	2.01
261.598	1.5
261.977	1.42
262.356	1.56
262.736	1.53
263.115	1.72
263.494	1.44
263.873	1.52
264.251	1.53
264.63	1.65
265.009	1.47
265.388	1.55
265.767	1.36
266.145	1.42
266.524	1.4
266.903	1.49
267.281	1.44
267.66	1.5
268.039	1.71
268.417	1.45
268.796	1.38
269.174	1.48
269.552	1.33
269.931	1.42
270.309	1.49
270.687	1.62
271.066	1.68
271.444	1.27
271.822	1.85
272.2	1.52
272.578	1.33
272.956	1.36
273.334	1.52
273.712	1.46
274.09	1.68
274.468	1.26
274.846	1.33
275.224	1.34
275.602	1.34
275.98	1.38
276.357	1.68
276.735	1.38
277.113	1.48
277.49	1.34
277.868	1.35
278.246	1.39
278.623	1.38
279.001	1.49
279.378	1.33
279.756	1.49
280.133	1.51
280.51	1.38
280.888	1.57
281.265	1.37
281.642	1.6
282.019	1.63
282.396	1.73
282.773	1.5
283.151	1.47
283.528	1.54
283.905	1.43
284.282	1.74
284.659	1.46
285.035	1.46
285.412	1.36
285.789	1.73
286.166	1.47
286.543	1.42
286.919	1.51
287.296	1.39
287.673	2.18
288.049	1.51
288.426	1.67
288.802	1.49
289.179	1.43
289.555	1.7
289.932	1.5
290.308	1.42
290.684	1.43
291.061	1.4
291.437	1.87
291.813	1.34
292.189	1.14
292.565	1.39
292.942	1.35
293.318	1.46
293.694	1.41
294.07	1.26
294.446	1.45
294.822	1.55
295.197	1.42
295.573	1.41
295.949	1.36
296.325	1.55
296.701	1.64
297.076	1.61
297.452	1.69
297.828	1.43
298.203	1.52
298.579	1.41
298.954	1.41
299.33	1.47
299.705	1.53
300.081	1.47
300.456	1.52
300.831	1.36
301.206	1.4
301.582	1.49
301.957	1.46
302.332	1.63
302.707	1.29
303.082	1.48
303.457	1.4
303.832	1.47
304.207	1.42
304.582	1.37
304.957	1.42
305.332	1.45
305.707	1.5
306.082	1.37
306.456	1.45
306.831	1.25
307.206	1.4
307.58	1.5
307.955	1.22
308.33	1.32
308.704	1.32
309.079	1.33
309.453	1.35
309.828	1.23
310.202	1.34
310.576	1.29
310.951	1.31
311.325	1.31
311.699	1.29
312.073	1.25
312.447	1.24
312.821	1.24
313.196	1.41
313.57	1.21
313.944	1.32
314.317	1.25
314.691	1.25
315.065	1.38
315.439	1.34
315.813	1.29
316.187	1.19
316.56	1.43
316.934	1.39
317.308	1.28
317.681	1.41
318.055	1.27
318.428	1.29
318.802	1.38
319.175	1.31
319.549	1.31
319.922	1.21
320.295	1.38
320.669	1.48
321.042	1.33
321.415	1.38
321.788	1.36
322.162	1.35
322.535	1.41
322.908	1.35
323.281	1.26
323.654	1.51
324.027	1.35
324.4	1.36
324.773	1.47
325.145	1.46
325.518	1.27
325.891	1.32
326.264	1.45
326.636	1.28
327.009	1.38
327.382	1.29
327.754	1.44
328.127	1.35
328.499	1.38
328.872	1.31
329.244	1.38
329.616	1.37
329.989	1.45
330.361	1.41
330.733	1.35
331.106	1.35
331.478	1.51
331.85	1.35
332.222	1.33
332.594	1.4
332.966	1.38
333.338	1.41
333.71	1.43
334.082	1.59
334.454	1.42
334.826	1.44
335.197	1.38
335.569	1.39
335.941	1.3
336.312	1.44
336.684	1.35
337.056	1.32
337.427	1.48
337.799	1.43
338.17	1.35
338.542	1.4
338.913	1.55
339.284	1.46
339.656	1.41
340.027	1.43
340.398	1.38
340.769	1.52
341.141	1.49
341.512	1.5
341.883	1.38
342.254	1.35
342.625	1.38
342.996	1.5
343.367	1.38
343.738	1.45
344.108	1.42
344.479	1.55
344.85	1.27
345.221	1.51
345.591	1.35
345.962	1.41
346.333	1.36
346.703	1.2
347.074	1.39
347.444	1.24
347.815	1.25
348.185	1.44
348.556	1.25
348.926	1.35
349.296	1.38
349.666	1.33
350.037	1.33
350.407	1.28
350.777	1.22
351.147	1.47
351.517	1.35
351.887	1.27
352.257	1.5
352.627	1.24
352.997	1.36
353.367	1.32
353.737	1.42
354.106	1.42
354.476	1.37
354.846	1.46
355.216	1.44
355.585	1.45
355.955	1.43
356.324	1.48
356.694	1.42
357.063	1.37
357.433	1.38
357.802	1.44
358.171	1.39
358.541	1.39
358.91	1.49
359.279	1.47
359.648	1.39
360.017	1.42
360.387	1.41
360.756	1.34
361.125	1.43
361.494	1.53
361.863	1.32
362.231	1.36
362.6	1.39
362.969	1.45
363.338	1.39
363.707	1.56
364.075	1.63
364.444	1.4
364.813	1.52
365.181	1.33
365.55	1.46
365.918	1.5
366.287	1.43
366.655	1.58
367.024	1.54
367.392	1.45
367.76	1.47
368.128	1.48
368.497	1.4
368.865	1.47
369.233	1.53
369.601	1.52
369.969	1.44
370.337	1.53
370.705	1.65
371.073	1.58
371.441	1.55
371.809	1.45
372.177	1.46
372.544	1.4
372.912	1.48
373.28	1.43
373.647	1.63
374.015	1.72
374.383	1.59
374.75	1.53
375.118	1.65
375.485	1.61
375.853	1.53
376.22	1.58
376.587	1.41
376.955	1.59
377.322	1.45
377.689	1.49
378.056	1.41
378.423	1.49
378.79	1.49
379.157	1.52
379.524	1.54
379.891	1.49
380.258	1.53
380.625	1.45
380.992	1.48
381.359	1.54
381.726	1.6
382.092	1.4
382.459	1.51
382.826	1.66
383.192	1.58
383.559	1.5
383.925	1.58
384.292	1.53
384.658	1.7
385.025	1.51
385.391	1.57
385.757	1.42
386.123	1.55
386.49	1.58
386.856	1.63
387.222	1.71
387.588	1.44
387.954	1.67
388.32	1.56
388.686	1.69
389.052	1.58
389.418	1.72
389.784	1.53
390.15	1.44
390.515	1.51
390.881	1.55
391.247	1.49
391.613	1.85
391.978	1.41
392.344	1.77
392.709	1.53
393.075	1.66
393.44	1.59
393.806	1.66
394.171	1.43
394.536	1.58
394.902	1.51
395.267	1.51
395.632	1.6
395.997	1.45
396.362	1.49
396.727	1.58
397.092	1.6
397.457	1.54
397.822	1.54
398.187	1.59
398.552	1.48
398.917	1.65
399.282	1.46
399.646	1.51
400.011	1.73
400.376	1.51
400.74	1.52
401.105	1.4
401.47	1.66
401.834	1.56
402.199	1.64
402.563	1.5
402.927	1.39
403.292	1.61
403.656	1.58
404.02	1.71
404.384	1.66
404.749	1.49
405.113	1.65
405.477	1.57
405.841	1.53
406.205	1.56
406.569	1.51
406.933	1.58
407.296	1.5
407.66	1.45
408.024	1.5
408.388	1.59
408.752	1.53
409.115	1.69
409.479	1.5
409.842	1.5
410.206	1.4
410.569	1.39
410.933	1.53
411.296	1.39
411.66	1.46
412.023	1.45
412.386	1.4
412.749	1.39
413.113	1.5
413.476	1.34
413.839	1.43
414.202	1.41
414.565	1.32
414.928	1.49
415.291	1.29
415.654	1.38
416.017	1.55
416.38	1.34
416.742	1.32
417.105	1.37
417.468	1.37
417.83	1.36
418.193	1.39
418.556	1.29
418.918	1.29
419.281	1.33
419.643	1.4
420.005	1.47
420.368	1.31
420.73	1.35
421.092	1.46
421.455	1.41
421.817	1.25
422.179	1.31
422.541	1.4
422.903	1.49
423.265	1.44
423.627	1.37
423.989	1.36
424.351	1.31
424.713	1.31
425.075	1.3
425.436	1.36
425.798	1.31
426.16	1.38
426.521	1.26
426.883	1.43
427.245	1.34
427.606	1.37
427.967	1.25
428.329	1.27
428.69	1.34
429.052	1.29
429.413	1.31
429.774	1.36
430.135	1.24
430.497	1.33
430.858	1.32
431.219	1.24
431.58	1.26
431.941	1.3
432.302	1.31
432.663	1.23
433.024	1.31
433.384	1.3
433.745	1.27
434.106	1.32
434.467	1.3
434.827	1.25
435.188	1.26
435.548	1.34
435.909	1.28
436.269	1.3
436.63	1.24
436.99	1.24
437.351	1.2
437.711	1.23
438.071	1.21
438.431	1.13
438.792	1.25
439.152	1.19
439.512	1.16
439.872	1.15
440.232	1.2
440.592	1.18
440.952	1.19
441.312	1.14
441.671	1.15
442.031	1.14
442.391	1.19
442.751	1.14
443.11	1.14
443.47	1.11
443.83	1.09
444.189	1.13
444.549	1.11
444.908	1.11
445.267	1.06
445.627	1.1
445.986	1.08
446.345	1.06
446.705	1.08
447.064	1.07
447.423	1.04
447.782	1.04
448.141	1.03
448.5	1
448.859	1
449.218	1.02
449.577	1.02
449.936	1.01
450.295	1.01
450.653	0.99
451.012	1.02
451.371	0.97
451.729	0.98
452.088	0.96
452.447	0.96
452.805	0.95
453.163	0.96
453.522	0.95
453.88	0.93
454.239	0.95
454.597	0.91
454.955	0.89
455.313	0.89
455.671	0.9
456.029	0.91
456.388	0.87
456.746	0.88
457.104	0.85
457.461	0.85
457.819	0.84
458.177	0.84
458.535	0.82
458.893	0.8
459.25	0.8
459.608	0.8
459.966	0.78
460.323	0.77
460.681	0.75
461.038	0.75
461.396	0.74
461.753	0.73
462.111	0.73
462.468	0.72
462.825	0.71
463.182	0.7
463.54	0.68
463.897	0.69
464.254	0.7
464.611	0.67
464.968	0.66
465.325	0.66
465.682	0.64
466.039	0.64
466.395	0.63
466.752	0.62
467.109	0.61
467.466	0.62
467.822	0.61
468.179	0.59
468.535	0.59
468.892	0.58
469.248	0.55
469.605	0.57
469.961	0.55
470.318	0.55
470.674	0.54
471.03	0.53
471.386	0.54
471.743	0.52
472.099	0.51
472.455	0.5
472.811	0.5
473.167	0.5
473.523	0.48
473.879	0.47
474.235	0.47
474.59	0.46
474.946	0.45
475.302	0.45
475.657	0.44
476.013	0.44
476.369	0.43
476.724	0.44
477.08	0.42
477.435	0.42
477.791	0.41
478.146	0.4
478.501	0.4
478.857	0.4
479.212	0.38
479.567	0.38
479.922	0.37
480.277	0.36
480.632	0.36
480.987	0.35
481.342	0.34
481.697	0.34
482.052	0.34
482.407	0.33
482.762	0.33
483.116	0.32
483.471	0.32
483.826	0.31
484.18	0.31
484.535	0.31
484.89	0.3
485.244	0.31
485.598	0.3
485.953	0.29
486.307	0.29
486.661	0.29
487.016	0.28
487.37	0.28
487.724	0.28
488.078	0.27
488.432	0.27
488.786	0.27
489.14	0.26
489.494	0.25
489.848	0.25
490.202	0.25
490.556	0.25
490.91	0.25
491.263	0.25
491.617	0.24
491.971	0.24
492.324	0.23
492.678	0.23
493.031	0.24
493.385	0.23
493.738	0.23
494.091	0.22
494.445	0.23
494.798	0.22
495.151	0.22
495.504	0.22
495.857	0.22
496.21	0.22
496.564	0.21
496.916	0.22
497.269	0.21
497.622	0.21
497.975	0.21
498.328	0.21
498.681	0.2
499.033	0.2
499.386	0.2
499.739	0.19
500.091	0.2
500.444	0.19
500.796	0.2
501.149	0.19
501.501	0.19
501.854	0.18
502.206	0.19
502.558	0.19
502.91	0.19
503.263	0.18
503.615	0.19
503.967	0.17
504.319	0.19
504.671	0.19
505.023	0.17
505.375	0.18
505.726	0.18
506.078	0.18
506.43	0.17
506.782	0.18
507.133	0.18
507.485	0.18
507.837	0.18
508.188	0.18
508.54	0.18
508.891	0.19
509.243	0.18
509.594	0.18
509.945	0.17
510.296	0.17
510.648	0.18
510.999	0.18
511.35	0.18
511.701	0.17
512.052	0.18
512.403	0.17
512.754	0.17
513.105	0.17
513.456	0.17
513.807	0.17
514.157	0.17
514.508	0.17
514.859	0.17
515.209	0.17
515.56	0.18
515.91	0.17
516.261	0.18
516.611	0.17
516.962	0.18
517.312	0.17
517.662	0.17
518.013	0.17
518.363	0.17
518.713	0.17
519.063	0.17
519.413	0.17
519.763	0.17
520.113	0.17
520.463	0.18
520.813	0.18
521.163	0.18
521.512	0.17
521.862	0.18
522.212	0.17
522.562	0.18
522.911	0.18
523.261	0.17
523.61	0.18
523.96	0.18
524.309	0.18
524.658	0.18
525.008	0.17
525.357	0.18
525.706	0.18
526.056	0.18
526.405	0.17
526.754	0.17
527.103	0.17
527.452	0.17
527.801	0.18
528.15	0.18
528.499	0.18
528.847	0.17
529.196	0.18
529.545	0.18
529.893	0.18
530.242	0.18
530.591	0.18
530.939	0.19
531.288	0.18
531.636	0.18
531.985	0.18
532.333	0.18
532.681	0.19
533.029	0.18
533.378	0.19
533.726	0.18
534.074	0.18
534.422	0.17
534.77	0.19
535.118	0.17
535.466	0.18
535.814	0.18
536.162	0.18
536.509	0.19
536.857	0.18
537.205	0.18
537.552	0.18
537.9	0.18
538.248	0.18
538.595	0.19
538.943	0.19
539.29	0.19
539.637	0.18
539.985	0.18
540.332	0.18
540.679	0.18
541.026	0.18
541.373	0.19
541.721	0.18
542.068	0.18
542.415	0.17
542.762	0.18
543.108	0.18
543.455	0.17
543.802	0.18
544.149	0.18
544.496	0.18
544.842	0.18
545.189	0.17
545.535	0.18
545.882	0.18
546.228	0.18
546.575	0.17
546.921	0.17
547.267	0.17
547.614	0.17
547.96	0.18
548.306	0.18
548.652	0.18
548.998	0.18
549.344	0.18
549.69	0.18
550.036	0.18
550.382	0.18
550.728	0.17
551.074	0.18
551.42	0.17
551.765	0.19
552.111	0.18
552.457	0.18
552.802	0.17
553.148	0.19
553.493	0.18
553.839	0.19
554.184	0.19
554.529	0.17
554.875	0.18
555.22	0.2
555.565	0.18
555.91	0.19
556.255	0.19
556.6	0.19
556.945	0.18
557.29	0.18
557.635	0.19
557.98	0.18
558.325	0.18
558.67	0.19
559.014	0.19
559.359	0.18
559.704	0.19
560.048	0.18
560.393	0.18
560.737	0.18
561.082	0.19
561.426	0.18
561.77	0.18
562.115	0.18
562.459	0.18
562.803	0.19
563.147	0.18
563.491	0.19
563.835	0.19
564.179	0.18
564.523	0.18
564.867	0.18
565.211	0.19
565.555	0.19
565.899	0.19
566.242	0.18
566.586	0.18
566.93	0.19
567.273	0.18
567.617	0.19
567.96	0.19
568.304	0.2
568.647	0.18
568.99	0.18
569.334	0.2
569.677	0.19
570.02	0.19
570.363	0.19
570.706	0.19
571.049	0.2
571.392	0.19
571.735	0.2
572.078	0.2
572.421	0.2
572.764	0.19
573.106	0.19
573.449	0.19
573.792	0.19
574.134	0.18
574.477	0.19
574.819	0.19
575.162	0.19
575.504	0.17
575.847	0.19
576.189	0.19
576.531	0.18
576.873	0.17
577.215	0.18
577.558	0.18
577.9	0.18
578.242	0.18
578.584	0.19
578.926	0.18
579.267	0.18
579.609	0.19
579.951	0.18
580.293	0.18
580.634	0.19
580.976	0.19
581.318	0.18
581.659	0.18
582.001	0.19
582.342	0.18
582.683	0.19
583.025	0.18
583.366	0.18
583.707	0.18
584.049	0.19
584.39	0.18
584.731	0.18
585.072	0.18
585.413	0.19
585.754	0.19
586.095	0.18
586.435	0.18
586.776	0.19
587.117	0.18
587.458	0.18
587.798	0.19
588.139	0.18
588.48	0.18
588.82	0.18
589.161	0.19
589.501	0.17
589.841	0.18
590.182	0.17
590.522	0.18
590.862	0.18
591.202	0.18
591.542	0.17
591.882	0.18
592.222	0.18
592.562	0.18
592.902	0.18
593.242	0.18
593.582	0.18
593.922	0.18
594.261	0.17
594.601	0.17
594.941	0.18
595.28	0.18
595.62	0.18
595.959	0.18
596.299	0.18
596.638	0.18
596.977	0.18
597.317	0.18
597.656	0.17
597.995	0.18
598.334	0.18
598.673	0.19
599.012	0.18
599.351	0.19
599.69	0.18
600.029	0.2
600.368	0.19
600.707	0.19
601.046	0.19
601.384	0.19
601.723	0.19
602.061	0.18
602.4	0.19
602.738	0.18
603.077	0.18
603.415	0.17
603.754	0.18
604.092	0.18
604.43	0.18
604.768	0.19
605.107	0.18
605.445	0.18
605.783	0.18
606.121	0.17
606.459	0.18
606.796	0.18
607.134	0.17
607.472	0.18
607.81	0.17
608.148	0.17
608.485	0.18
608.823	0.18
609.16	0.18
609.498	0.18
609.835	0.17
610.173	0.17
610.51	0.18
610.847	0.18
611.185	0.18
611.522	0.18
611.859	0.18
612.196	0.18
612.533	0.18
612.87	0.19
613.207	0.18
613.544	0.18
613.881	0.19
614.217	0.18
614.554	0.18
614.891	0.18
615.228	0.18
615.564	0.18
615.901	0.19
616.237	0.18
616.574	0.18
616.91	0.19
617.246	0.18
617.583	0.19
617.919	0.19
618.255	0.19
618.591	0.18
618.927	0.19
619.263	0.18
619.599	0.18
619.935	0.19
620.271	0.18
620.607	0.18
620.943	0.18
621.279	0.18
621.614	0.19
621.95	0.19
622.286	0.18
622.621	0.18
622.957	0.18
623.292	0.18
623.627	0.18
623.963	0.17
624.298	0.17
624.633	0.17
624.968	0.17
625.304	0.17
625.639	0.17
625.974	0.18
626.309	0.17
626.644	0.17
626.979	0.18
627.313	0.17
627.648	0.17
627.983	0.18
628.318	0.17
628.652	0.17
628.987	0.18
629.321	0.17
629.656	0.16
629.99	0.16
630.325	0.17
630.659	0.16
630.993	0.16
631.327	0.16
631.662	0.15
631.996	0.15
632.33	0.16
632.664	0.16
632.998	0.15
633.332	0.16
633.666	0.16
633.999	0.16
634.333	0.15
634.667	0.15
635.001	0.15
635.334	0.16
635.668	0.15
636.001	0.15
636.335	0.15
636.668	0.16
637.001	0.15
637.335	0.15
637.668	0.15
638.001	0.14
638.334	0.15
638.668	0.15
639.001	0.15
639.334	0.15
639.667	0.14
639.999	0.15
640.332	0.15
640.665	0.15
640.998	0.15
641.331	0.15
641.663	0.15
641.996	0.15
642.328	0.16
642.661	0.15
642.993	0.15
643.326	0.15
643.658	0.15
643.99	0.15
644.323	0.16
644.655	0.15
644.987	0.15
645.319	0.16
645.651	0.16
645.983	0.16
646.315	0.16
646.647	0.16
646.979	0.16
647.31	0.16
647.642	0.16
647.974	0.16
648.305	0.17
648.637	0.16
648.968	0.15
649.3	0.16
649.631	0.15
649.963	0.15
650.294	0.16
650.625	0.15
650.957	0.16
651.288	0.15
651.619	0.16
651.95	0.16
652.281	0.15
652.612	0.16
652.943	0.15
653.274	0.15
653.604	0.16
653.935	0.15
654.266	0.15
654.596	0.15
654.927	0.15
655.258	0.15
655.588	0.15
655.918	0.15
656.249	0.13
656.579	0.15
656.909	0.15
657.24	0.15
657.57	0.15
657.9	0.15
658.23	0.14
658.56	0.15
658.89	0.15
659.22	0.14
659.55	0.15
659.88	0.15
660.209	0.15
660.539	0.15
660.869	0.15
661.198	0.15
661.528	0.15
661.857	0.14
662.187	0.15
662.516	0.15
662.846	0.15
663.175	0.14
663.504	0.14
663.833	0.14
664.163	0.15
664.492	0.14
664.821	0.15
665.15	0.14
665.479	0.14
665.807	0.13
666.136	0.14
666.465	0.14
666.794	0.14
667.122	0.14
667.451	0.14
667.78	0.14
668.108	0.15
668.437	0.14
668.765	0.15
669.093	0.14
669.422	0.15
669.75	0.14
670.078	0.14
670.406	0.15
670.734	0.15
671.062	0.14
671.39	0.14
671.718	0.15
672.046	0.14
672.374	0.14
672.702	0.14
673.029	0.14
673.357	0.14
673.685	0.15
674.012	0.13
674.34	0.13
674.667	0.14
674.995	0.14
675.322	0.14
675.649	0.13
675.977	0.14
676.304	0.14
676.631	0.14
676.958	0.14
677.285	0.13
677.612	0.14
677.939	0.14
678.266	0.14
678.593	0.13
678.92	0.14
679.246	0.14
679.573	0.14
679.9	0.13
680.226	0.14
680.553	0.13
680.879	0.13
681.206	0.14
681.532	0.13
681.858	0.13
682.184	0.13
682.511	0.14
682.837	0.14
683.163	0.14
683.489	0.13
683.815	0.14
684.141	0.14
684.467	0.13
684.793	0.13
685.118	0.14
685.444	0.13
685.77	0.13
686.095	0.13
686.421	0.13
686.746	0.13
687.072	0.13
687.397	0.12
687.723	0.13
688.048	0.13
688.373	0.12
688.698	0.12
689.023	0.12
689.349	0.12
689.674	0.12
689.999	0.12
690.323	0.11
690.648	0.11
690.973	0.11
691.298	0.12
691.623	0.11
691.947	0.11
692.272	0.11
692.596	0.12
692.921	0.12
693.245	0.12
693.57	0.12
693.894	0.13
694.218	0.12
694.543	0.11
694.867	0.12
695.191	0.12
695.515	0.12
695.839	0.11
696.163	0.13
696.487	0.12
696.811	0.12
697.135	0.12
697.458	0.12
697.782	0.12
698.106	0.12
698.429	0.12
698.753	0.11
699.076	0.12
699.4	0.11
699.723	0.12
700.046	0.11
700.37	0.12
700.693	0.12
701.016	0.12
701.339	0.12
701.662	0.12
701.985	0.12
702.308	0.11
702.631	0.12
702.954	0.12
703.277	0.11
703.599	0.11
703.922	0.1
704.245	0.1
704.567	0.1
704.89	0.1
705.212	0.1
705.535	0.1
705.857	0.11
706.179	0.1
706.502	0.1
706.824	0.1
707.146	0.1
707.468	0.1
707.79	0.1
708.112	0.11
708.434	0.1
708.756	0.1
709.078	0.1
709.399	0.1
709.721	0.1
710.043	0.1
710.364	0.1
710.686	0.1
711.007	0.11
711.329	0.11
711.65	0.11
711.972	0.11
712.293	0.11
712.614	0.11
712.935	0.11
713.256	0.11
713.577	0.11
713.898	0.11
714.219	0.11
714.54	0.11
714.861	0.1
715.182	0.1
715.503	0.11
715.823	0.1
716.144	0.1
716.464	0.1
716.785	0.09
717.105	0.1
717.426	0.1
717.746	0.1
718.066	0.09
718.387	0.1
718.707	0.09
719.027	0.1
719.347	0.09
719.667	0.1
719.987	0.08
720.307	0.1
720.627	0.09
720.947	0.09
721.266	0.09
721.586	0.08
721.906	0.08
722.225	0.08
722.545	0.09
722.864	0.09
723.184	0.1
723.503	0.09
723.823	0.09
