Data from 12-12-AQDScycling_Absorbance__205__00205.txt Node

Date: Tue Dec 12 11:48:32 EST 2023
User: kyuminlee
Spectrometer: FLMS00943
Trigger mode: 0
Integration Time (sec): 1.000000E-1
Scans to average: 1
Electric dark correction enabled: true
Nonlinearity correction enabled: false
Boxcar width: 0
XAxis mode: Wavelengths
Number of Pixels in Spectrum: 2048
>>>>>Begin Spectral Data<<<<<
179.651	-0
180.037	-0
180.424	-0
180.81	-0.45
181.197	0.32
181.583	0.99
181.97	-0
182.356	-0
182.743	-0
183.129	0.79
183.515	1.98
183.901	-2.23
184.288	0.5
184.674	-0
185.06	-0
185.446	-0.17
185.832	-0
186.218	0.85
186.604	-0.12
186.99	-0
187.376	1.07
187.762	0.05
188.148	0.64
188.534	0.05
188.92	-0.07
189.305	0.18
189.691	0.23
190.077	0.25
190.463	0.21
190.848	0.04
191.234	0.31
191.619	0.06
192.005	0.22
192.391	0.15
192.776	0.26
193.161	0.08
193.547	0.16
193.932	-0.02
194.318	0.05
194.703	0.16
195.088	0.08
195.473	0.28
195.859	0.17
196.244	0.17
196.629	0.29
197.014	0.26
197.399	0.09
197.784	0.27
198.169	0.13
198.554	0.12
198.939	0.15
199.324	0.11
199.709	0.03
200.094	0.11
200.478	0.18
200.863	0.28
201.248	0.38
201.633	0.22
202.017	0.2
202.402	0.25
202.787	0.1
203.171	0.16
203.556	0.22
203.94	0.17
204.325	0.23
204.709	0.21
205.093	0.12
205.478	0.3
205.862	0.25
206.246	0.08
206.631	0.15
207.015	0.16
207.399	0.31
207.783	0.26
208.167	0.24
208.551	0.2
208.935	0.19
209.319	0.19
209.703	0.21
210.087	0.28
210.471	0.11
210.855	0.23
211.239	0.35
211.623	0.31
212.007	0.31
212.39	0.47
212.774	0.17
213.158	0.16
213.541	0.19
213.925	0.24
214.309	0.38
214.692	0.34
215.076	0.22
215.459	0.22
215.842	0.31
216.226	0.34
216.609	0.34
216.993	0.22
217.376	0.32
217.759	0.3
218.142	0.41
218.525	0.45
218.909	0.39
219.292	0.39
219.675	0.38
220.058	0.51
220.441	0.45
220.824	0.39
221.207	0.67
221.59	0.52
221.973	0.43
222.355	0.62
222.738	0.57
223.121	0.63
223.504	0.57
223.886	0.7
224.269	0.84
224.652	0.7
225.034	0.85
225.417	0.68
225.799	0.82
226.182	0.83
226.564	0.9
226.947	0.73
227.329	0.73
227.711	0.88
228.094	0.99
228.476	0.9
228.858	0.86
229.24	0.81
229.623	1
230.005	0.9
230.387	0.88
230.769	0.86
231.151	1
231.533	0.94
231.915	0.94
232.297	1.08
232.679	1.01
233.061	1.12
233.442	1.03
233.824	1.02
234.206	1.09
234.588	1.07
234.969	1.13
235.351	0.89
235.733	1.06
236.114	1.18
236.496	1.25
236.877	1.27
237.259	1.11
237.64	1.22
238.022	1.08
238.403	1.19
238.784	1.15
239.165	1.01
239.547	1.02
239.928	1
240.309	1.09
240.69	1.03
241.071	1.08
241.452	1.07
241.834	1.17
242.215	1.23
242.595	1.09
242.976	1.39
243.357	1.14
243.738	1.07
244.119	1.28
244.5	1.11
244.881	1.21
245.261	1.29
245.642	1.21
246.023	1.22
246.403	1.19
246.784	1.17
247.164	1.28
247.545	1.24
247.925	1.25
248.306	1.22
248.686	1.47
249.067	1.3
249.447	1.44
249.827	1.62
250.207	1.55
250.588	1.3
250.968	1.34
251.348	1.33
251.728	1.39
252.108	1.3
252.488	1.33
252.868	1.46
253.248	1.23
253.628	1.38
254.008	1.37
254.388	1.45
254.768	1.27
255.147	1.28
255.527	1.53
255.907	1.55
256.287	1.34
256.666	1.44
257.046	1.45
257.425	1.57
257.805	1.32
258.184	1.32
258.564	1.36
258.943	1.3
259.323	1.44
259.702	1.41
260.081	1.44
260.461	1.49
260.84	1.45
261.219	1.74
261.598	1.46
261.977	1.46
262.356	1.76
262.736	1.53
263.115	1.59
263.494	1.46
263.873	1.41
264.251	1.64
264.63	1.55
265.009	1.44
265.388	1.63
265.767	1.31
266.145	1.43
266.524	1.51
266.903	1.44
267.281	1.35
267.66	1.6
268.039	1.54
268.417	1.6
268.796	1.41
269.174	1.34
269.552	1.45
269.931	1.48
270.309	1.35
270.687	1.77
271.066	1.6
271.444	1.36
271.822	1.52
272.2	1.44
272.578	1.37
272.956	1.45
273.334	1.4
273.712	1.46
274.09	1.5
274.468	1.47
274.846	1.23
275.224	1.47
275.602	1.4
275.98	1.71
276.357	1.33
276.735	1.54
277.113	1.55
277.49	1.47
277.868	1.31
278.246	1.4
278.623	1.37
279.001	1.34
279.378	1.53
279.756	1.34
280.133	1.56
280.51	1.41
280.888	1.5
281.265	1.37
281.642	1.43
282.019	1.69
282.396	1.5
282.773	1.42
283.151	1.53
283.528	1.49
283.905	1.42
284.282	1.56
284.659	1.52
285.035	1.35
285.412	1.42
285.789	1.44
286.166	1.53
286.543	1.41
286.919	1.48
287.296	1.52
287.673	1.56
288.049	1.55
288.426	1.6
288.802	1.49
289.179	1.44
289.555	1.76
289.932	1.55
290.308	1.33
290.684	1.34
291.061	1.31
291.437	1.67
291.813	1.39
292.189	1.32
292.565	1.35
292.942	1.33
293.318	1.4
293.694	1.36
294.07	1.4
294.446	1.56
294.822	1.48
295.197	1.52
295.573	1.65
295.949	1.43
296.325	1.51
296.701	1.51
297.076	1.55
297.452	1.76
297.828	1.58
298.203	1.62
298.579	1.56
298.954	1.54
299.33	1.49
299.705	1.64
300.081	1.67
300.456	1.45
300.831	1.5
301.206	1.44
301.582	1.69
301.957	1.52
302.332	1.58
302.707	1.49
303.082	1.53
303.457	1.55
303.832	1.59
304.207	1.46
304.582	1.54
304.957	1.54
305.332	1.62
305.707	1.69
306.082	1.54
306.456	1.63
306.831	1.44
307.206	1.47
307.58	1.57
307.955	1.46
308.33	1.56
308.704	1.62
309.079	1.41
309.453	1.81
309.828	1.54
310.202	1.44
310.576	1.42
310.951	1.54
311.325	1.52
311.699	1.6
312.073	1.41
312.447	1.46
312.821	1.37
313.196	1.47
313.57	1.38
313.944	1.48
314.317	1.48
314.691	1.64
315.065	1.51
315.439	1.54
315.813	1.45
316.187	1.44
316.56	1.64
316.934	1.91
317.308	1.48
317.681	1.55
318.055	1.46
318.428	1.65
318.802	1.59
319.175	1.48
319.549	1.48
319.922	1.35
320.295	1.52
320.669	1.54
321.042	1.49
321.415	1.85
321.788	1.62
322.162	1.5
322.535	1.64
322.908	1.57
323.281	1.47
323.654	1.81
324.027	1.44
324.4	1.57
324.773	1.62
325.145	1.55
325.518	1.39
325.891	1.5
326.264	1.73
326.636	1.34
327.009	1.49
327.382	1.47
327.754	1.75
328.127	1.52
328.499	1.66
328.872	1.48
329.244	1.54
329.616	1.4
329.989	1.58
330.361	1.45
330.733	1.47
331.106	1.5
331.478	1.63
331.85	1.5
332.222	1.47
332.594	1.82
332.966	1.46
333.338	1.71
333.71	1.65
334.082	1.97
334.454	1.58
334.826	1.68
335.197	1.63
335.569	1.48
335.941	1.5
336.312	1.51
336.684	1.4
337.056	1.43
337.427	1.63
337.799	1.63
338.17	1.66
338.542	1.54
338.913	1.56
339.284	1.55
339.656	1.54
340.027	1.68
340.398	1.63
340.769	1.59
341.141	1.78
341.512	1.58
341.883	1.66
342.254	1.64
342.625	1.52
342.996	1.67
343.367	1.67
343.738	1.58
344.108	1.48
344.479	1.86
344.85	1.4
345.221	1.51
345.591	1.4
345.962	1.49
346.333	1.62
346.703	1.31
347.074	1.46
347.444	1.37
347.815	1.44
348.185	1.49
348.556	1.37
348.926	1.35
349.296	1.43
349.666	1.4
350.037	1.44
350.407	1.32
350.777	1.41
351.147	1.41
351.517	1.46
351.887	1.37
352.257	1.39
352.627	1.36
352.997	1.28
353.367	1.45
353.737	1.48
354.106	1.34
354.476	1.26
354.846	1.41
355.216	1.41
355.585	1.45
355.955	1.3
356.324	1.37
356.694	1.36
357.063	1.3
357.433	1.29
357.802	1.31
358.171	1.37
358.541	1.27
358.91	1.32
359.279	1.26
359.648	1.23
360.017	1.29
360.387	1.23
360.756	1.16
361.125	1.23
361.494	1.24
361.863	1.23
362.231	1.19
362.6	1.19
362.969	1.14
363.338	1.08
363.707	1.16
364.075	1.17
364.444	1.03
364.813	1.12
365.181	1.06
365.55	1.13
365.918	1.06
366.287	1.09
366.655	1.06
367.024	1.05
367.392	1.08
367.76	1.02
368.128	1.04
368.497	1.02
368.865	1.04
369.233	1.05
369.601	0.99
369.969	0.98
370.337	1.01
370.705	0.95
371.073	1.03
371.441	1.02
371.809	1.03
372.177	0.99
372.544	1.01
372.912	0.98
373.28	0.94
373.647	1.03
374.015	1
374.383	0.96
374.75	1.01
375.118	0.95
375.485	0.99
375.853	1.01
376.22	0.95
376.587	0.96
376.955	1.02
377.322	0.99
377.689	0.96
378.056	0.98
378.423	0.97
378.79	1.02
379.157	0.97
379.524	0.99
379.891	1
380.258	1
380.625	0.97
380.992	0.96
381.359	1
381.726	1.03
382.092	0.96
382.459	1.01
382.826	0.99
383.192	1.02
383.559	1.03
383.925	1.02
384.292	1.02
384.658	1.07
385.025	1.05
385.391	1.07
385.757	1.08
386.123	1.08
386.49	1.04
386.856	1.09
387.222	1.11
387.588	1.07
387.954	1.12
388.32	1.11
388.686	1.08
389.052	1.11
389.418	1.09
389.784	1.1
390.15	1.11
390.515	1.06
390.881	1.14
391.247	1.07
391.613	1.11
391.978	1.09
392.344	1.09
392.709	1.12
393.075	1.13
393.44	1.04
393.806	1.11
394.171	1.08
394.536	1.07
394.902	1.13
395.267	1.06
395.632	1.05
395.997	1.01
396.362	1.07
396.727	1.07
397.092	1.08
397.457	1.1
397.822	1.05
398.187	1.04
398.552	1.01
398.917	1.05
399.282	1
399.646	1.05
400.011	1.08
400.376	0.94
400.74	1.01
401.105	1
401.47	1.01
401.834	1.01
402.199	0.95
402.563	0.96
402.927	0.95
403.292	0.94
403.656	0.95
404.02	0.95
404.384	0.92
404.749	0.94
405.113	0.96
405.477	0.91
405.841	0.89
406.205	0.88
406.569	0.88
406.933	0.88
407.296	0.89
407.66	0.89
408.024	0.89
408.388	0.9
408.752	0.87
409.115	0.87
409.479	0.86
409.842	0.84
410.206	0.82
410.569	0.83
410.933	0.84
411.296	0.81
411.66	0.83
412.023	0.8
412.386	0.82
412.749	0.78
413.113	0.77
413.476	0.74
413.839	0.79
414.202	0.77
414.565	0.74
414.928	0.75
415.291	0.75
415.654	0.77
416.017	0.77
416.38	0.76
416.742	0.74
417.105	0.71
417.468	0.72
417.83	0.75
418.193	0.75
418.556	0.74
418.918	0.73
419.281	0.77
419.643	0.74
420.005	0.72
420.368	0.73
420.73	0.73
421.092	0.71
421.455	0.72
421.817	0.68
422.179	0.69
422.541	0.69
422.903	0.73
423.265	0.73
423.627	0.7
423.989	0.67
424.351	0.67
424.713	0.69
425.075	0.68
425.436	0.69
425.798	0.67
426.16	0.68
426.521	0.7
426.883	0.68
427.245	0.7
427.606	0.67
427.967	0.68
428.329	0.65
428.69	0.68
429.052	0.67
429.413	0.68
429.774	0.65
430.135	0.65
430.497	0.66
430.858	0.63
431.219	0.66
431.58	0.64
431.941	0.66
432.302	0.65
432.663	0.63
433.024	0.66
433.384	0.65
433.745	0.63
434.106	0.65
434.467	0.65
434.827	0.65
435.188	0.64
435.548	0.64
435.909	0.64
436.269	0.63
436.63	0.62
436.99	0.63
437.351	0.61
437.711	0.63
438.071	0.62
438.431	0.61
438.792	0.59
439.152	0.6
439.512	0.59
439.872	0.6
440.232	0.62
440.592	0.61
440.952	0.6
441.312	0.58
441.671	0.59
442.031	0.59
442.391	0.59
442.751	0.58
443.11	0.58
443.47	0.56
443.83	0.56
444.189	0.55
444.549	0.56
444.908	0.56
445.267	0.55
445.627	0.53
445.986	0.53
446.345	0.54
446.705	0.53
447.064	0.55
447.423	0.52
447.782	0.52
448.141	0.53
448.5	0.51
448.859	0.53
449.218	0.51
449.577	0.52
449.936	0.53
450.295	0.51
450.653	0.52
451.012	0.52
451.371	0.51
451.729	0.51
452.088	0.51
452.447	0.51
452.805	0.5
453.163	0.5
453.522	0.49
453.88	0.49
454.239	0.49
454.597	0.48
454.955	0.48
455.313	0.46
455.671	0.46
456.029	0.46
456.388	0.46
456.746	0.45
457.104	0.45
457.461	0.44
457.819	0.44
458.177	0.43
458.535	0.42
458.893	0.41
459.25	0.41
459.608	0.42
459.966	0.41
460.323	0.41
460.681	0.39
461.038	0.4
461.396	0.39
461.753	0.39
462.111	0.39
462.468	0.38
462.825	0.37
463.182	0.38
463.54	0.36
463.897	0.37
464.254	0.37
464.611	0.37
464.968	0.36
465.325	0.36
465.682	0.35
466.039	0.36
466.395	0.34
466.752	0.34
467.109	0.33
467.466	0.33
467.822	0.34
468.179	0.33
468.535	0.33
468.892	0.32
469.248	0.32
469.605	0.31
469.961	0.31
470.318	0.31
470.674	0.31
471.03	0.3
471.386	0.3
471.743	0.29
472.099	0.29
472.455	0.29
472.811	0.28
473.167	0.28
473.523	0.28
473.879	0.27
474.235	0.27
474.59	0.26
474.946	0.26
475.302	0.26
475.657	0.25
476.013	0.26
476.369	0.25
476.724	0.25
477.08	0.24
477.435	0.24
477.791	0.24
478.146	0.24
478.501	0.23
478.857	0.24
479.212	0.23
479.567	0.23
479.922	0.22
480.277	0.23
480.632	0.21
480.987	0.22
481.342	0.22
481.697	0.21
482.052	0.21
482.407	0.21
482.762	0.21
483.116	0.2
483.471	0.2
483.826	0.19
484.18	0.2
484.535	0.19
484.89	0.18
485.244	0.19
485.598	0.19
485.953	0.19
486.307	0.18
486.661	0.19
487.016	0.18
487.37	0.18
487.724	0.19
488.078	0.18
488.432	0.18
488.786	0.17
489.14	0.17
489.494	0.17
489.848	0.17
490.202	0.16
490.556	0.17
490.91	0.16
491.263	0.17
491.617	0.16
491.971	0.17
492.324	0.16
492.678	0.17
493.031	0.16
493.385	0.16
493.738	0.16
494.091	0.16
494.445	0.16
494.798	0.15
495.151	0.15
495.504	0.15
495.857	0.15
496.21	0.15
496.564	0.15
496.916	0.16
497.269	0.15
497.622	0.15
497.975	0.15
498.328	0.15
498.681	0.15
499.033	0.14
499.386	0.15
499.739	0.14
500.091	0.14
500.444	0.14
500.796	0.14
501.149	0.13
501.501	0.14
501.854	0.13
502.206	0.14
502.558	0.14
502.91	0.14
503.263	0.14
503.615	0.13
503.967	0.14
504.319	0.14
504.671	0.13
505.023	0.13
505.375	0.13
505.726	0.13
506.078	0.13
506.43	0.12
506.782	0.13
507.133	0.12
507.485	0.13
507.837	0.13
508.188	0.13
508.54	0.13
508.891	0.13
509.243	0.12
509.594	0.13
509.945	0.12
510.296	0.12
510.648	0.13
510.999	0.13
511.35	0.13
511.701	0.12
512.052	0.13
512.403	0.12
512.754	0.12
513.105	0.12
513.456	0.12
513.807	0.12
514.157	0.12
514.508	0.13
514.859	0.11
515.209	0.12
515.56	0.12
515.91	0.11
516.261	0.12
516.611	0.11
516.962	0.11
517.312	0.12
517.662	0.11
518.013	0.11
518.363	0.12
518.713	0.12
519.063	0.12
519.413	0.11
519.763	0.11
520.113	0.12
520.463	0.12
520.813	0.12
521.163	0.12
521.512	0.12
521.862	0.12
522.212	0.12
522.562	0.12
522.911	0.12
523.261	0.12
523.61	0.12
523.96	0.12
524.309	0.12
524.658	0.13
525.008	0.12
525.357	0.12
525.706	0.12
526.056	0.12
526.405	0.12
526.754	0.12
527.103	0.12
527.452	0.12
527.801	0.12
528.15	0.12
528.499	0.12
528.847	0.12
529.196	0.13
529.545	0.13
529.893	0.13
530.242	0.12
530.591	0.13
530.939	0.13
531.288	0.13
531.636	0.13
531.985	0.13
532.333	0.13
532.681	0.13
533.029	0.13
533.378	0.13
533.726	0.13
534.074	0.13
534.422	0.12
534.77	0.13
535.118	0.13
535.466	0.13
535.814	0.12
536.162	0.13
536.509	0.13
536.857	0.13
537.205	0.13
537.552	0.13
537.9	0.13
538.248	0.12
538.595	0.13
538.943	0.13
539.29	0.13
539.637	0.13
539.985	0.13
540.332	0.13
540.679	0.13
541.026	0.12
541.373	0.12
541.721	0.12
542.068	0.12
542.415	0.12
542.762	0.12
543.108	0.11
543.455	0.12
543.802	0.11
544.149	0.12
544.496	0.12
544.842	0.12
545.189	0.11
545.535	0.12
545.882	0.11
546.228	0.12
546.575	0.11
546.921	0.12
547.267	0.12
547.614	0.12
547.96	0.12
548.306	0.12
548.652	0.12
548.998	0.12
549.344	0.12
549.69	0.12
550.036	0.12
550.382	0.12
550.728	0.12
551.074	0.12
551.42	0.12
551.765	0.12
552.111	0.12
552.457	0.14
552.802	0.13
553.148	0.12
553.493	0.13
553.839	0.13
554.184	0.13
554.529	0.12
554.875	0.14
555.22	0.13
555.565	0.13
555.91	0.12
556.255	0.14
556.6	0.13
556.945	0.13
557.29	0.13
557.635	0.13
557.98	0.13
558.325	0.12
558.67	0.13
559.014	0.13
559.359	0.13
559.704	0.13
560.048	0.12
560.393	0.13
560.737	0.12
561.082	0.12
561.426	0.11
561.77	0.12
562.115	0.12
562.459	0.12
562.803	0.13
563.147	0.12
563.491	0.12
563.835	0.13
564.179	0.12
564.523	0.12
564.867	0.12
565.211	0.12
565.555	0.12
565.899	0.13
566.242	0.13
566.586	0.12
566.93	0.12
567.273	0.12
567.617	0.13
567.96	0.13
568.304	0.13
568.647	0.12
568.99	0.13
569.334	0.13
569.677	0.12
570.02	0.13
570.363	0.13
570.706	0.13
571.049	0.12
571.392	0.13
571.735	0.12
572.078	0.13
572.421	0.13
572.764	0.13
573.106	0.12
573.449	0.12
573.792	0.13
574.134	0.12
574.477	0.12
574.819	0.13
575.162	0.13
575.504	0.12
575.847	0.13
576.189	0.13
576.531	0.13
576.873	0.13
577.215	0.13
577.558	0.13
577.9	0.12
578.242	0.12
578.584	0.12
578.926	0.12
579.267	0.12
579.609	0.12
579.951	0.12
580.293	0.12
580.634	0.13
580.976	0.13
581.318	0.12
581.659	0.12
582.001	0.13
582.342	0.12
582.683	0.12
583.025	0.11
583.366	0.12
583.707	0.12
584.049	0.12
584.39	0.12
584.731	0.13
585.072	0.12
585.413	0.13
585.754	0.12
586.095	0.13
586.435	0.13
586.776	0.13
587.117	0.13
587.458	0.13
587.798	0.13
588.139	0.13
588.48	0.12
588.82	0.12
589.161	0.12
589.501	0.12
589.841	0.13
590.182	0.13
590.522	0.12
590.862	0.13
591.202	0.12
591.542	0.12
591.882	0.12
592.222	0.12
592.562	0.12
592.902	0.12
593.242	0.12
593.582	0.13
593.922	0.12
594.261	0.12
594.601	0.12
594.941	0.12
595.28	0.13
595.62	0.12
595.959	0.12
596.299	0.12
596.638	0.12
596.977	0.12
597.317	0.12
597.656	0.12
597.995	0.11
598.334	0.13
598.673	0.12
599.012	0.11
599.351	0.12
599.69	0.11
600.029	0.12
600.368	0.12
600.707	0.12
601.046	0.12
601.384	0.12
601.723	0.12
602.061	0.12
602.4	0.12
602.738	0.12
603.077	0.12
603.415	0.12
603.754	0.12
604.092	0.12
604.43	0.11
604.768	0.12
605.107	0.12
605.445	0.12
605.783	0.12
606.121	0.11
606.459	0.12
606.796	0.12
607.134	0.12
607.472	0.11
607.81	0.11
608.148	0.11
608.485	0.13
608.823	0.12
609.16	0.12
609.498	0.13
609.835	0.12
610.173	0.11
610.51	0.12
610.847	0.12
611.185	0.12
611.522	0.12
611.859	0.12
612.196	0.12
612.533	0.13
612.87	0.13
613.207	0.12
613.544	0.13
613.881	0.13
614.217	0.13
614.554	0.12
614.891	0.13
615.228	0.12
615.564	0.13
615.901	0.13
616.237	0.13
616.574	0.13
616.91	0.13
617.246	0.13
617.583	0.13
617.919	0.14
618.255	0.13
618.591	0.13
618.927	0.14
619.263	0.14
619.599	0.13
619.935	0.14
620.271	0.14
620.607	0.13
620.943	0.13
621.279	0.13
621.614	0.13
621.95	0.13
622.286	0.12
622.621	0.12
622.957	0.12
623.292	0.12
623.627	0.12
623.963	0.12
624.298	0.12
624.633	0.12
624.968	0.12
625.304	0.12
625.639	0.12
625.974	0.11
626.309	0.11
626.644	0.12
626.979	0.12
627.313	0.12
627.648	0.12
627.983	0.12
628.318	0.11
628.652	0.11
628.987	0.12
629.321	0.11
629.656	0.11
629.99	0.11
630.325	0.12
630.659	0.11
630.993	0.11
631.327	0.12
631.662	0.11
631.996	0.11
632.33	0.11
632.664	0.11
632.998	0.11
633.332	0.11
633.666	0.12
633.999	0.11
634.333	0.11
634.667	0.11
635.001	0.11
635.334	0.1
635.668	0.11
636.001	0.11
636.335	0.11
636.668	0.11
637.001	0.1
637.335	0.11
637.668	0.1
638.001	0.1
638.334	0.11
638.668	0.11
639.001	0.11
639.334	0.1
639.667	0.1
639.999	0.11
640.332	0.11
640.665	0.1
640.998	0.1
641.331	0.1
641.663	0.1
641.996	0.1
642.328	0.1
642.661	0.1
642.993	0.1
643.326	0.1
643.658	0.1
643.99	0.1
644.323	0.1
644.655	0.11
644.987	0.1
645.319	0.11
645.651	0.11
645.983	0.11
646.315	0.1
646.647	0.11
646.979	0.11
647.31	0.12
647.642	0.11
647.974	0.11
648.305	0.11
648.637	0.11
648.968	0.11
649.3	0.11
649.631	0.11
649.963	0.11
650.294	0.12
650.625	0.11
650.957	0.12
651.288	0.11
651.619	0.12
651.95	0.12
652.281	0.11
652.612	0.11
652.943	0.12
653.274	0.11
653.604	0.11
653.935	0.11
654.266	0.11
654.596	0.11
654.927	0.1
655.258	0.11
655.588	0.11
655.918	0.11
656.249	0.09
656.579	0.11
656.909	0.11
657.24	0.11
657.57	0.11
657.9	0.11
658.23	0.11
658.56	0.11
658.89	0.11
659.22	0.11
659.55	0.11
659.88	0.11
660.209	0.11
660.539	0.12
660.869	0.12
661.198	0.12
661.528	0.11
661.857	0.11
662.187	0.11
662.516	0.12
662.846	0.1
663.175	0.11
663.504	0.11
663.833	0.11
664.163	0.11
664.492	0.11
664.821	0.11
665.15	0.1
665.479	0.11
665.807	0.1
666.136	0.1
666.465	0.1
666.794	0.1
667.122	0.1
667.451	0.1
667.78	0.1
668.108	0.11
668.437	0.1
668.765	0.11
669.093	0.1
669.422	0.1
669.75	0.1
670.078	0.1
670.406	0.11
670.734	0.1
671.062	0.1
671.39	0.11
671.718	0.11
672.046	0.11
672.374	0.1
672.702	0.1
673.029	0.1
673.357	0.11
673.685	0.11
674.012	0.11
674.34	0.1
674.667	0.1
674.995	0.11
675.322	0.1
675.649	0.1
675.977	0.1
676.304	0.1
676.631	0.1
676.958	0.1
677.285	0.09
677.612	0.09
677.939	0.09
678.266	0.1
678.593	0.09
678.92	0.1
679.246	0.09
679.573	0.09
679.9	0.09
680.226	0.09
680.553	0.09
680.879	0.09
681.206	0.09
681.532	0.09
681.858	0.09
682.184	0.09
682.511	0.09
682.837	0.09
683.163	0.09
683.489	0.09
683.815	0.09
684.141	0.09
684.467	0.09
684.793	0.09
685.118	0.09
685.444	0.09
685.77	0.09
686.095	0.09
686.421	0.09
686.746	0.09
687.072	0.09
687.397	0.09
687.723	0.1
688.048	0.09
688.373	0.09
688.698	0.09
689.023	0.09
689.349	0.09
689.674	0.09
689.999	0.09
690.323	0.08
690.648	0.08
690.973	0.08
691.298	0.08
691.623	0.09
691.947	0.08
692.272	0.08
692.596	0.08
692.921	0.09
693.245	0.07
693.57	0.08
693.894	0.08
694.218	0.08
694.543	0.08
694.867	0.08
695.191	0.08
695.515	0.08
695.839	0.08
696.163	0.08
696.487	0.08
696.811	0.07
697.135	0.08
697.458	0.08
697.782	0.08
698.106	0.09
698.429	0.08
698.753	0.08
699.076	0.08
699.4	0.08
699.723	0.07
700.046	0.07
700.37	0.08
700.693	0.08
701.016	0.08
701.339	0.08
701.662	0.09
701.985	0.09
702.308	0.08
702.631	0.08
702.954	0.08
703.277	0.08
703.599	0.08
703.922	0.07
704.245	0.08
704.567	0.07
704.89	0.08
705.212	0.08
705.535	0.07
705.857	0.07
706.179	0.07
706.502	0.07
706.824	0.08
707.146	0.07
707.468	0.08
707.79	0.07
708.112	0.08
708.434	0.08
708.756	0.08
709.078	0.08
709.399	0.07
709.721	0.07
710.043	0.08
710.364	0.07
710.686	0.07
711.007	0.08
711.329	0.08
711.65	0.07
711.972	0.07
712.293	0.08
712.614	0.08
712.935	0.08
713.256	0.08
713.577	0.08
713.898	0.08
714.219	0.07
714.54	0.07
714.861	0.06
715.182	0.07
715.503	0.06
715.823	0.07
716.144	0.07
716.464	0.07
716.785	0.06
717.105	0.07
717.426	0.07
717.746	0.06
718.066	0.06
718.387	0.07
718.707	0.06
719.027	0.07
719.347	0.05
719.667	0.06
719.987	0.05
720.307	0.05
720.627	0.06
720.947	0.06
721.266	0.05
721.586	0.05
721.906	0.05
722.225	0.05
722.545	0.05
722.864	0.05
723.184	0.06
723.503	0.05
723.823	0.05
724.142	0.05
