Data from 12-12-AQDScycling_Absorbance__148__00148.txt Node

Date: Tue Dec 12 11:33:44 EST 2023
User: kyuminlee
Spectrometer: FLMS00943
Trigger mode: 0
Integration Time (sec): 1.000000E-1
Scans to average: 1
Electric dark correction enabled: true
Nonlinearity correction enabled: false
Boxcar width: 0
XAxis mode: Wavelengths
Number of Pixels in Spectrum: 2048
>>>>>Begin Spectral Data<<<<<
179.651	-0
180.037	-0
180.424	-0
180.81	-0.7
181.197	0.08
181.583	-0
181.97	-0
182.356	-0.26
182.743	-0
183.129	0.24
183.515	-0.01
183.901	-2.68
184.288	0.43
184.674	-0
185.06	-1.15
185.446	-0
185.832	-0
186.218	0.03
186.604	0.68
186.99	-0
187.376	-0
187.762	-0
188.148	0.74
188.534	0.04
188.92	0.02
189.305	0.06
189.691	0.29
190.077	0.1
190.463	0.12
190.848	0.04
191.234	0.03
191.619	0.27
192.005	0.08
192.391	0.2
192.776	0.2
193.161	0.16
193.547	0.08
193.932	0.14
194.318	-0.07
194.703	0.13
195.088	0.18
195.473	0.21
195.859	0.23
196.244	0.14
196.629	0.13
197.014	0.14
197.399	0.23
197.784	0.22
198.169	0.15
198.554	0.13
198.939	0.14
199.324	0.21
199.709	0.07
200.094	0.1
200.478	0.13
200.863	0.33
201.248	0.2
201.633	0.13
202.017	0.28
202.402	0.27
202.787	0.11
203.171	0.16
203.556	0.16
203.94	0.36
204.325	0.16
204.709	0.12
205.093	0.06
205.478	0.15
205.862	0.16
206.246	0.33
206.631	0.15
207.015	0.17
207.399	0.21
207.783	0.11
208.167	0.19
208.551	0.27
208.935	0.18
209.319	0.11
209.703	0.17
210.087	0.24
210.471	0.06
210.855	0.17
211.239	0.29
211.623	0.27
212.007	0.2
212.39	0.23
212.774	0.13
213.158	0.25
213.541	0.2
213.925	0.16
214.309	0.32
214.692	0.32
215.076	0.17
215.459	0.17
215.842	0.08
216.226	0.27
216.609	0.33
216.993	0.23
217.376	0.46
217.759	0.32
218.142	0.24
218.525	0.5
218.909	0.3
219.292	0.44
219.675	0.4
220.058	0.42
220.441	0.52
220.824	0.46
221.207	0.55
221.59	0.43
221.973	0.52
222.355	0.8
222.738	0.8
223.121	0.61
223.504	0.54
223.886	0.71
224.269	0.61
224.652	0.61
225.034	0.83
225.417	0.72
225.799	0.8
226.182	0.87
226.564	0.82
226.947	0.79
227.329	0.8
227.711	0.76
228.094	1.1
228.476	0.89
228.858	0.87
229.24	0.82
229.623	0.91
230.005	0.93
230.387	0.81
230.769	0.87
231.151	0.89
231.533	0.95
231.915	0.84
232.297	0.94
232.679	0.92
233.061	1.08
233.442	1.07
233.824	1.03
234.206	1.18
234.588	1.17
234.969	1.03
235.351	1.08
235.733	0.95
236.114	1.18
236.496	1.04
236.877	1.18
237.259	1.12
237.64	1.23
238.022	1.06
238.403	1.05
238.784	0.93
239.165	0.98
239.547	1.24
239.928	1.03
240.309	1.02
240.69	1.08
241.071	1.2
241.452	1.11
241.834	1.13
242.215	1.07
242.595	1.07
242.976	1.15
243.357	1.04
243.738	1.06
244.119	1.19
244.5	1.09
244.881	1.2
245.261	1.21
245.642	1.16
246.023	1.3
246.403	1.1
246.784	1.23
247.164	1.35
247.545	1.21
247.925	1.18
248.306	1.15
248.686	1.38
249.067	1.36
249.447	1.31
249.827	1.55
250.207	1.34
250.588	1.32
250.968	1.42
251.348	1.28
251.728	1.49
252.108	1.39
252.488	1.38
252.868	1.29
253.248	1.4
253.628	1.44
254.008	1.51
254.388	1.36
254.768	1.35
255.147	1.52
255.527	1.42
255.907	1.28
256.287	1.38
256.666	1.47
257.046	1.55
257.425	1.58
257.805	1.32
258.184	1.34
258.564	1.31
258.943	1.46
259.323	1.47
259.702	1.55
260.081	1.49
260.461	1.62
260.84	1.46
261.219	1.58
261.598	1.59
261.977	1.38
262.356	1.6
262.736	1.56
263.115	1.47
263.494	1.48
263.873	1.46
264.251	1.54
264.63	1.56
265.009	1.49
265.388	1.45
265.767	1.47
266.145	1.38
266.524	1.38
266.903	1.43
267.281	1.49
267.66	1.46
268.039	1.36
268.417	1.4
268.796	1.36
269.174	1.37
269.552	1.32
269.931	1.39
270.309	1.36
270.687	1.58
271.066	1.72
271.444	1.38
271.822	1.44
272.2	1.43
272.578	1.34
272.956	1.49
273.334	1.52
273.712	1.53
274.09	1.4
274.468	1.39
274.846	1.22
275.224	1.38
275.602	1.41
275.98	1.66
276.357	1.55
276.735	1.44
277.113	1.54
277.49	1.33
277.868	1.34
278.246	1.42
278.623	1.46
279.001	1.32
279.378	1.49
279.756	1.48
280.133	1.58
280.51	1.44
280.888	1.39
281.265	1.46
281.642	1.55
282.019	1.61
282.396	1.73
282.773	1.53
283.151	1.49
283.528	1.5
283.905	1.46
284.282	1.68
284.659	1.62
285.035	1.3
285.412	1.26
285.789	1.67
286.166	1.42
286.543	1.44
286.919	1.38
287.296	1.51
287.673	1.65
288.049	1.65
288.426	1.49
288.802	1.44
289.179	1.46
289.555	1.63
289.932	1.4
290.308	1.33
290.684	1.46
291.061	1.34
291.437	1.51
291.813	1.33
292.189	1.32
292.565	1.3
292.942	1.32
293.318	1.43
293.694	1.43
294.07	1.3
294.446	1.28
294.822	1.53
295.197	1.45
295.573	1.39
295.949	1.51
296.325	1.47
296.701	1.39
297.076	1.5
297.452	1.45
297.828	1.53
298.203	1.56
298.579	1.31
298.954	1.4
299.33	1.35
299.705	1.38
300.081	1.43
300.456	1.36
300.831	1.3
301.206	1.3
301.582	1.41
301.957	1.34
302.332	1.3
302.707	1.23
303.082	1.23
303.457	1.18
303.832	1.16
304.207	1.11
304.582	1.16
304.957	1.2
305.332	1.13
305.707	1.2
306.082	1.14
306.456	1.18
306.831	1.09
307.206	1.09
307.58	1.1
307.955	1.1
308.33	1.04
308.704	1.04
309.079	1.01
309.453	1.04
309.828	1.05
310.202	0.99
310.576	0.99
310.951	0.98
311.325	0.95
311.699	0.97
312.073	0.95
312.447	0.92
312.821	0.94
313.196	0.96
313.57	0.88
313.944	0.87
314.317	0.88
314.691	0.89
315.065	0.91
315.439	0.92
315.813	0.89
316.187	0.88
316.56	0.89
316.934	0.9
317.308	0.88
317.681	0.9
318.055	0.91
318.428	0.85
318.802	0.86
319.175	0.85
319.549	0.87
319.922	0.82
320.295	0.87
320.669	0.88
321.042	0.88
321.415	0.87
321.788	0.87
322.162	0.85
322.535	0.85
322.908	0.82
323.281	0.81
323.654	0.87
324.027	0.78
324.4	0.84
324.773	0.86
325.145	0.85
325.518	0.8
325.891	0.82
326.264	0.89
326.636	0.86
327.009	0.89
327.382	0.86
327.754	0.88
328.127	0.83
328.499	0.89
328.872	0.87
329.244	0.87
329.616	0.88
329.989	0.88
330.361	0.88
330.733	0.86
331.106	0.86
331.478	0.9
331.85	0.88
332.222	0.89
332.594	0.91
332.966	0.92
333.338	0.94
333.71	0.93
334.082	0.94
334.454	0.93
334.826	0.94
335.197	0.97
335.569	0.94
335.941	0.94
336.312	0.98
336.684	0.98
337.056	0.98
337.427	0.97
337.799	1.02
338.17	1.01
338.542	1.01
338.913	0.99
339.284	1.03
339.656	1.02
340.027	1.03
340.398	1.05
340.769	1.07
341.141	1.15
341.512	1.02
341.883	1.13
342.254	1.09
342.625	1.09
342.996	1.11
343.367	1.1
343.738	1.14
344.108	1.12
344.479	1.17
344.85	1.09
345.221	1.14
345.591	1.14
345.962	1.18
346.333	1.13
346.703	1.06
347.074	1.12
347.444	1.1
347.815	1.12
348.185	1.16
348.556	1.12
348.926	1.13
349.296	1.28
349.666	1.18
350.037	1.16
350.407	1.1
350.777	1.22
351.147	1.25
351.517	1.26
351.887	1.22
352.257	1.4
352.627	1.25
352.997	1.25
353.367	1.23
353.737	1.29
354.106	1.37
354.476	1.2
354.846	1.37
355.216	1.38
355.585	1.41
355.955	1.42
356.324	1.42
356.694	1.45
357.063	1.36
357.433	1.33
357.802	1.41
358.171	1.49
358.541	1.49
358.91	1.42
359.279	1.67
359.648	1.42
360.017	1.64
360.387	1.52
360.756	1.53
361.125	1.55
361.494	1.54
361.863	1.46
362.231	1.55
362.6	1.51
362.969	1.49
363.338	1.49
363.707	1.79
364.075	1.66
364.444	1.45
364.813	1.5
365.181	1.57
365.55	1.58
365.918	1.55
366.287	1.57
366.655	1.61
367.024	1.66
367.392	1.52
367.76	1.46
368.128	1.66
368.497	1.46
368.865	1.54
369.233	1.53
369.601	1.51
369.969	1.56
370.337	1.53
370.705	1.54
371.073	1.55
371.441	1.52
371.809	1.6
372.177	1.58
372.544	1.63
372.912	1.56
373.28	1.54
373.647	1.66
374.015	1.67
374.383	1.97
374.75	1.62
375.118	1.65
375.485	1.64
375.853	1.67
376.22	1.55
376.587	1.56
376.955	1.44
377.322	1.49
377.689	1.59
378.056	1.47
378.423	1.46
378.79	1.53
379.157	1.7
379.524	1.68
379.891	1.5
380.258	1.61
380.625	1.63
380.992	1.59
381.359	1.66
381.726	1.68
382.092	1.53
382.459	1.6
382.826	1.48
383.192	1.52
383.559	1.5
383.925	1.65
384.292	1.63
384.658	1.56
385.025	1.56
385.391	1.64
385.757	1.82
386.123	1.63
386.49	1.5
386.856	1.74
387.222	1.55
387.588	1.54
387.954	1.75
388.32	1.84
388.686	1.74
389.052	1.51
389.418	1.69
389.784	1.52
390.15	1.7
390.515	1.42
390.881	1.73
391.247	1.39
391.613	1.72
391.978	1.46
392.344	1.54
392.709	1.71
393.075	1.68
393.44	1.48
393.806	1.56
394.171	1.43
394.536	1.59
394.902	1.63
395.267	1.5
395.632	1.47
395.997	1.48
396.362	1.56
396.727	1.65
397.092	1.58
397.457	1.55
397.822	1.52
398.187	1.53
398.552	1.61
398.917	1.82
399.282	1.63
399.646	1.6
400.011	1.73
400.376	1.5
400.74	1.64
401.105	1.49
401.47	1.66
401.834	1.51
402.199	1.5
402.563	1.63
402.927	1.62
403.292	1.6
403.656	1.68
404.02	1.61
404.384	1.77
404.749	1.5
405.113	1.65
405.477	1.84
405.841	1.69
406.205	1.56
406.569	1.46
406.933	1.49
407.296	1.66
407.66	1.71
408.024	1.58
408.388	1.69
408.752	1.62
409.115	1.86
409.479	1.63
409.842	1.47
410.206	1.56
410.569	1.64
410.933	1.51
411.296	1.48
411.66	1.69
412.023	1.45
412.386	1.5
412.749	1.46
413.113	1.52
413.476	1.46
413.839	1.49
414.202	1.56
414.565	1.44
414.928	1.42
415.291	1.39
415.654	1.43
416.017	1.6
416.38	1.49
416.742	1.35
417.105	1.39
417.468	1.38
417.83	1.53
418.193	1.71
418.556	1.43
418.918	1.42
419.281	1.52
419.643	1.58
420.005	1.57
420.368	1.53
420.73	1.48
421.092	1.61
421.455	1.61
421.817	1.39
422.179	1.46
422.541	1.63
422.903	1.5
423.265	1.63
423.627	1.58
423.989	1.57
424.351	1.56
424.713	1.54
425.075	1.48
425.436	1.51
425.798	1.41
426.16	1.68
426.521	1.66
426.883	1.48
427.245	1.48
427.606	1.45
427.967	1.37
428.329	1.46
428.69	1.68
429.052	1.39
429.413	1.59
429.774	1.55
430.135	1.49
430.497	1.57
430.858	1.51
431.219	1.56
431.58	1.47
431.941	1.49
432.302	1.44
432.663	1.54
433.024	1.59
433.384	1.55
433.745	1.43
434.106	1.58
434.467	1.54
434.827	1.44
435.188	1.42
435.548	1.57
435.909	1.55
436.269	1.51
436.63	1.47
436.99	1.42
437.351	1.36
437.711	1.58
438.071	1.42
438.431	1.45
438.792	1.46
439.152	1.42
439.512	1.44
439.872	1.43
440.232	1.45
440.592	1.45
440.952	1.43
441.312	1.37
441.671	1.4
442.031	1.45
442.391	1.35
442.751	1.43
443.11	1.45
443.47	1.35
443.83	1.37
444.189	1.32
444.549	1.37
444.908	1.29
445.267	1.33
445.627	1.36
445.986	1.32
446.345	1.31
446.705	1.3
447.064	1.35
447.423	1.31
447.782	1.32
448.141	1.31
448.5	1.19
448.859	1.3
449.218	1.26
449.577	1.29
449.936	1.28
450.295	1.26
450.653	1.25
451.012	1.28
451.371	1.21
451.729	1.23
452.088	1.23
452.447	1.2
452.805	1.21
453.163	1.22
453.522	1.21
453.88	1.19
454.239	1.18
454.597	1.16
454.955	1.14
455.313	1.14
455.671	1.14
456.029	1.13
456.388	1.11
456.746	1.1
457.104	1.07
457.461	1.08
457.819	1.07
458.177	1.03
458.535	1.03
458.893	1.02
459.25	1
459.608	1.01
459.966	0.97
460.323	0.96
460.681	0.95
461.038	0.95
461.396	0.91
461.753	0.9
462.111	0.9
462.468	0.87
462.825	0.87
463.182	0.86
463.54	0.84
463.897	0.86
464.254	0.84
464.611	0.81
464.968	0.8
465.325	0.8
465.682	0.78
466.039	0.77
466.395	0.75
466.752	0.74
467.109	0.74
467.466	0.72
467.822	0.72
468.179	0.69
468.535	0.7
468.892	0.69
469.248	0.67
469.605	0.65
469.961	0.65
470.318	0.65
470.674	0.64
471.03	0.62
471.386	0.62
471.743	0.6
472.099	0.59
472.455	0.58
472.811	0.57
473.167	0.56
473.523	0.55
473.879	0.53
474.235	0.53
474.59	0.52
474.946	0.51
475.302	0.5
475.657	0.48
476.013	0.48
476.369	0.47
476.724	0.47
477.08	0.47
477.435	0.45
477.791	0.44
478.146	0.44
478.501	0.44
478.857	0.43
479.212	0.42
479.567	0.4
479.922	0.4
480.277	0.39
480.632	0.38
480.987	0.38
481.342	0.37
481.697	0.37
482.052	0.35
482.407	0.34
482.762	0.34
483.116	0.33
483.471	0.32
483.826	0.31
484.18	0.32
484.535	0.31
484.89	0.3
485.244	0.3
485.598	0.3
485.953	0.29
486.307	0.28
486.661	0.28
487.016	0.27
487.37	0.27
487.724	0.26
488.078	0.26
488.432	0.25
488.786	0.25
489.14	0.24
489.494	0.24
489.848	0.24
490.202	0.22
490.556	0.23
490.91	0.22
491.263	0.22
491.617	0.22
491.971	0.21
492.324	0.2
492.678	0.21
493.031	0.2
493.385	0.2
493.738	0.19
494.091	0.19
494.445	0.19
494.798	0.18
495.151	0.18
495.504	0.18
495.857	0.18
496.21	0.18
496.564	0.17
496.916	0.18
497.269	0.17
497.622	0.17
497.975	0.17
498.328	0.17
498.681	0.16
499.033	0.16
499.386	0.16
499.739	0.15
500.091	0.15
500.444	0.14
500.796	0.15
501.149	0.15
501.501	0.14
501.854	0.14
502.206	0.14
502.558	0.14
502.91	0.14
503.263	0.13
503.615	0.14
503.967	0.14
504.319	0.13
504.671	0.13
505.023	0.12
505.375	0.12
505.726	0.12
506.078	0.12
506.43	0.12
506.782	0.11
507.133	0.11
507.485	0.11
507.837	0.13
508.188	0.11
508.54	0.12
508.891	0.12
509.243	0.11
509.594	0.12
509.945	0.11
510.296	0.11
510.648	0.11
510.999	0.11
511.35	0.11
511.701	0.11
512.052	0.11
512.403	0.11
512.754	0.1
513.105	0.1
513.456	0.1
513.807	0.09
514.157	0.1
514.508	0.1
514.859	0.09
515.209	0.1
515.56	0.09
515.91	0.09
516.261	0.1
516.611	0.09
516.962	0.1
517.312	0.09
517.662	0.1
518.013	0.09
518.363	0.09
518.713	0.09
519.063	0.09
519.413	0.09
519.763	0.09
520.113	0.09
520.463	0.09
520.813	0.09
521.163	0.09
521.512	0.09
521.862	0.09
522.212	0.09
522.562	0.09
522.911	0.09
523.261	0.09
523.61	0.1
523.96	0.09
524.309	0.09
524.658	0.09
525.008	0.09
525.357	0.08
525.706	0.09
526.056	0.09
526.405	0.09
526.754	0.09
527.103	0.09
527.452	0.08
527.801	0.09
528.15	0.09
528.499	0.09
528.847	0.09
529.196	0.09
529.545	0.09
529.893	0.1
530.242	0.09
530.591	0.1
530.939	0.1
531.288	0.09
531.636	0.1
531.985	0.1
532.333	0.1
532.681	0.09
533.029	0.09
533.378	0.09
533.726	0.09
534.074	0.1
534.422	0.09
534.77	0.09
535.118	0.09
535.466	0.09
535.814	0.09
536.162	0.09
536.509	0.09
536.857	0.09
537.205	0.1
537.552	0.1
537.9	0.09
538.248	0.08
538.595	0.09
538.943	0.09
539.29	0.09
539.637	0.08
539.985	0.09
540.332	0.08
540.679	0.07
541.026	0.07
541.373	0.09
541.721	0.08
542.068	0.08
542.415	0.08
542.762	0.08
543.108	0.07
543.455	0.07
543.802	0.08
544.149	0.08
544.496	0.08
544.842	0.08
545.189	0.07
545.535	0.07
545.882	0.08
546.228	0.08
546.575	0.07
546.921	0.07
547.267	0.08
547.614	0.08
547.96	0.08
548.306	0.07
548.652	0.08
548.998	0.08
549.344	0.08
549.69	0.09
550.036	0.08
550.382	0.08
550.728	0.09
551.074	0.09
551.42	0.09
551.765	0.08
552.111	0.09
552.457	0.1
552.802	0.08
553.148	0.08
553.493	0.08
553.839	0.09
554.184	0.09
554.529	0.08
554.875	0.08
555.22	0.09
555.565	0.09
555.91	0.09
556.255	0.09
556.6	0.09
556.945	0.08
557.29	0.08
557.635	0.08
557.98	0.09
558.325	0.09
558.67	0.08
559.014	0.09
559.359	0.09
559.704	0.09
560.048	0.08
560.393	0.08
560.737	0.07
561.082	0.08
561.426	0.07
561.77	0.08
562.115	0.07
562.459	0.07
562.803	0.08
563.147	0.07
563.491	0.07
563.835	0.08
564.179	0.08
564.523	0.08
564.867	0.07
565.211	0.08
565.555	0.08
565.899	0.09
566.242	0.08
566.586	0.07
566.93	0.08
567.273	0.08
567.617	0.08
567.96	0.09
568.304	0.08
568.647	0.08
568.99	0.08
569.334	0.09
569.677	0.08
570.02	0.08
570.363	0.09
570.706	0.08
571.049	0.08
571.392	0.08
571.735	0.08
572.078	0.08
572.421	0.09
572.764	0.09
573.106	0.08
573.449	0.09
573.792	0.08
574.134	0.08
574.477	0.08
574.819	0.08
575.162	0.08
575.504	0.08
575.847	0.08
576.189	0.09
576.531	0.08
576.873	0.08
577.215	0.08
577.558	0.09
577.9	0.08
578.242	0.08
578.584	0.07
578.926	0.08
579.267	0.08
579.609	0.07
579.951	0.07
580.293	0.08
580.634	0.08
580.976	0.08
581.318	0.07
581.659	0.07
582.001	0.08
582.342	0.07
582.683	0.08
583.025	0.07
583.366	0.07
583.707	0.07
584.049	0.08
584.39	0.07
584.731	0.07
585.072	0.08
585.413	0.08
585.754	0.07
586.095	0.08
586.435	0.08
586.776	0.08
587.117	0.07
587.458	0.08
587.798	0.08
588.139	0.08
588.48	0.08
588.82	0.07
589.161	0.07
589.501	0.08
589.841	0.07
590.182	0.07
590.522	0.08
590.862	0.08
591.202	0.07
591.542	0.08
591.882	0.08
592.222	0.07
592.562	0.08
592.902	0.08
593.242	0.07
593.582	0.08
593.922	0.07
594.261	0.08
594.601	0.07
594.941	0.07
595.28	0.08
595.62	0.08
595.959	0.07
596.299	0.07
596.638	0.07
596.977	0.08
597.317	0.08
597.656	0.08
597.995	0.07
598.334	0.08
598.673	0.07
599.012	0.07
599.351	0.08
599.69	0.06
600.029	0.08
600.368	0.08
600.707	0.07
601.046	0.07
601.384	0.08
601.723	0.08
602.061	0.07
602.4	0.07
602.738	0.07
603.077	0.07
603.415	0.07
603.754	0.07
604.092	0.07
604.43	0.07
604.768	0.07
605.107	0.08
605.445	0.07
605.783	0.07
606.121	0.07
606.459	0.07
606.796	0.07
607.134	0.07
607.472	0.07
607.81	0.08
608.148	0.08
608.485	0.08
608.823	0.08
609.16	0.07
609.498	0.08
609.835	0.07
610.173	0.08
610.51	0.08
610.847	0.08
611.185	0.08
611.522	0.08
611.859	0.08
612.196	0.08
612.533	0.08
612.87	0.08
613.207	0.08
613.544	0.08
613.881	0.08
614.217	0.09
614.554	0.09
614.891	0.08
615.228	0.08
615.564	0.09
615.901	0.09
616.237	0.09
616.574	0.09
616.91	0.1
617.246	0.09
617.583	0.09
617.919	0.09
618.255	0.09
618.591	0.08
618.927	0.09
619.263	0.09
619.599	0.09
619.935	0.09
620.271	0.08
620.607	0.09
620.943	0.08
621.279	0.09
621.614	0.09
621.95	0.09
622.286	0.08
622.621	0.08
622.957	0.08
623.292	0.07
623.627	0.07
623.963	0.07
624.298	0.07
624.633	0.07
624.968	0.07
625.304	0.08
625.639	0.07
625.974	0.07
626.309	0.07
626.644	0.07
626.979	0.08
627.313	0.08
627.648	0.07
627.983	0.07
628.318	0.07
628.652	0.07
628.987	0.07
629.321	0.08
629.656	0.07
629.99	0.08
630.325	0.08
630.659	0.08
630.993	0.07
631.327	0.08
631.662	0.07
631.996	0.07
632.33	0.07
632.664	0.07
632.998	0.07
633.332	0.07
633.666	0.07
633.999	0.07
634.333	0.06
634.667	0.07
635.001	0.06
635.334	0.06
635.668	0.06
636.001	0.07
636.335	0.06
636.668	0.07
637.001	0.06
637.335	0.07
637.668	0.06
638.001	0.06
638.334	0.07
638.668	0.06
639.001	0.06
639.334	0.07
639.667	0.06
639.999	0.06
640.332	0.06
640.665	0.06
640.998	0.07
641.331	0.07
641.663	0.06
641.996	0.06
642.328	0.06
642.661	0.06
642.993	0.06
643.326	0.07
643.658	0.06
643.99	0.07
644.323	0.06
644.655	0.07
644.987	0.07
645.319	0.07
645.651	0.07
645.983	0.07
646.315	0.06
646.647	0.07
646.979	0.07
647.31	0.08
647.642	0.07
647.974	0.06
648.305	0.08
648.637	0.07
648.968	0.07
649.3	0.08
649.631	0.07
649.963	0.07
650.294	0.08
650.625	0.07
650.957	0.08
651.288	0.08
651.619	0.08
651.95	0.08
652.281	0.07
652.612	0.07
652.943	0.07
653.274	0.08
653.604	0.07
653.935	0.07
654.266	0.07
654.596	0.06
654.927	0.06
655.258	0.07
655.588	0.07
655.918	0.07
656.249	0.06
656.579	0.07
656.909	0.07
657.24	0.06
657.57	0.07
657.9	0.07
658.23	0.07
658.56	0.08
658.89	0.07
659.22	0.07
659.55	0.07
659.88	0.07
660.209	0.07
660.539	0.09
660.869	0.07
661.198	0.08
661.528	0.08
661.857	0.08
662.187	0.08
662.516	0.07
662.846	0.07
663.175	0.08
663.504	0.07
663.833	0.07
664.163	0.08
664.492	0.07
664.821	0.07
665.15	0.07
665.479	0.07
665.807	0.07
666.136	0.07
666.465	0.07
666.794	0.07
667.122	0.07
667.451	0.07
667.78	0.07
668.108	0.07
668.437	0.07
668.765	0.07
669.093	0.07
669.422	0.07
669.75	0.07
670.078	0.07
670.406	0.07
670.734	0.07
671.062	0.07
671.39	0.07
671.718	0.07
672.046	0.07
672.374	0.06
672.702	0.07
673.029	0.06
673.357	0.08
673.685	0.07
674.012	0.07
674.34	0.06
674.667	0.07
674.995	0.07
675.322	0.07
675.649	0.06
675.977	0.07
676.304	0.07
676.631	0.06
676.958	0.06
677.285	0.06
677.612	0.06
677.939	0.06
678.266	0.06
678.593	0.06
678.92	0.06
679.246	0.05
679.573	0.06
679.9	0.05
680.226	0.06
680.553	0.05
680.879	0.05
681.206	0.06
681.532	0.05
681.858	0.06
682.184	0.05
682.511	0.06
682.837	0.05
683.163	0.06
683.489	0.06
683.815	0.06
684.141	0.06
684.467	0.05
684.793	0.05
685.118	0.06
685.444	0.06
685.77	0.06
686.095	0.06
686.421	0.06
686.746	0.07
687.072	0.06
687.397	0.06
687.723	0.06
688.048	0.06
688.373	0.06
688.698	0.06
689.023	0.06
689.349	0.06
689.674	0.06
689.999	0.05
690.323	0.05
690.648	0.04
690.973	0.05
691.298	0.04
691.623	0.05
691.947	0.05
692.272	0.04
692.596	0.05
692.921	0.06
693.245	0.05
693.57	0.05
693.894	0.06
694.218	0.05
694.543	0.05
694.867	0.05
695.191	0.05
695.515	0.05
695.839	0.05
696.163	0.05
696.487	0.05
696.811	0.05
697.135	0.05
697.458	0.05
697.782	0.05
698.106	0.04
698.429	0.05
698.753	0.05
699.076	0.05
699.4	0.05
699.723	0.05
700.046	0.04
700.37	0.05
700.693	0.05
701.016	0.05
701.339	0.05
701.662	0.06
701.985	0.05
702.308	0.04
702.631	0.05
702.954	0.06
703.277	0.06
703.599	0.05
703.922	0.05
704.245	0.06
704.567	0.05
704.89	0.05
705.212	0.05
705.535	0.05
705.857	0.05
706.179	0.04
706.502	0.05
706.824	0.04
707.146	0.04
707.468	0.05
707.79	0.05
708.112	0.05
708.434	0.05
708.756	0.05
709.078	0.05
709.399	0.04
709.721	0.05
710.043	0.05
710.364	0.05
710.686	0.05
711.007	0.04
711.329	0.05
711.65	0.04
711.972	0.05
712.293	0.05
712.614	0.05
712.935	0.05
713.256	0.05
713.577	0.05
713.898	0.05
714.219	0.04
714.54	0.04
714.861	0.04
715.182	0.05
715.503	0.04
715.823	0.05
716.144	0.04
716.464	0.04
716.785	0.04
717.105	0.04
717.426	0.05
717.746	0.04
718.066	0.03
718.387	0.04
718.707	0.03
719.027	0.04
719.347	0.03
719.667	0.04
719.987	0.04
720.307	0.03
720.627	0.04
720.947	0.04
721.266	0.04
721.586	0.03
721.906	0.03
722.225	0.03
722.545	0.03
722.864	0.03
723.184	0.04
723.503	0.03
